TITLE,p(TT-TII-PD)_KBr
DATA TYPE,INFRARED SPECTRUM
ORIGIN,JASCO
OWNER,matsulab
DATE,24/01/19
TIME,15:36:17
SPECTROMETER/DATA SYSTEM,
LOCALE,1041
RESOLUTION,
DELTAX,0.964233
XUNITS,1/CM
YUNITS,ABSORBANCE
FIRSTX,  399.1927
LASTX, 4000.6047
NPOINTS,    3736
FIRSTY,     0.04422
MAXY,     0.66816
MINY,     0.00100
XYDATA
399.1927,0.0442229
400.1569,0.0300405
401.1211,0.0162551
402.0854,0.00703639
403.0496,0.00329418
404.0138,0.00391406
404.9781,0.00683873
405.9423,0.0100219
406.9065,0.0123266
407.8708,0.0139257
408.8350,0.0158069
409.7992,0.0187394
410.7635,0.0225163
411.7277,0.0260052
412.6919,0.0279392
413.6562,0.0277703
414.6204,0.0258974
415.5846,0.0233161
416.5489,0.0211878
417.5131,0.0204768
418.4773,0.0213779
419.4416,0.0228475
420.4058,0.0234641
421.3700,0.0228187
422.3343,0.02145
423.2985,0.0201164
424.2627,0.0194803
425.2270,0.0200007
426.1912,0.0217562
427.1554,0.0243118
428.1197,0.0268442
429.0839,0.0285059
430.0481,0.0288295
431.0124,0.0279705
431.9766,0.0266429
432.9408,0.025735
433.9051,0.0258085
434.8693,0.026803
435.8335,0.0281481
436.7978,0.0292054
437.7620,0.0296758
438.7262,0.0296564
439.6905,0.029397
440.6547,0.0290439
441.6189,0.0285689
442.5832,0.0278878
443.5474,0.0270308
444.5116,0.026188
445.4759,0.025587
446.4401,0.0253505
447.4043,0.0254774
448.3686,0.0259241
449.3328,0.0266604
450.2970,0.0276275
451.2613,0.0286452
452.2255,0.0293941
453.1897,0.029551
454.1540,0.0290014
455.1182,0.0279799
456.0824,0.0270319
457.0467,0.026742
458.0109,0.0272775
458.9751,0.0281231
459.9394,0.028456
460.9036,0.0278554
461.8678,0.0265911
462.8321,0.0253746
463.7963,0.0249183
464.7605,0.0255261
465.7248,0.0268806
466.6890,0.0282215
467.6532,0.0288668
468.6175,0.0286705
469.5817,0.0280649
470.5459,0.0277196
471.5102,0.028067
472.4744,0.0290082
473.4386,0.0300795
474.4029,0.0309626
475.3671,0.0317727
476.3313,0.0328329
477.2956,0.0342483
478.2598,0.0356896
479.2240,0.0365403
480.1883,0.036315
481.1525,0.0350586
482.1167,0.0334163
483.0810,0.0322939
484.0452,0.032307
485.0094,0.0333867
485.9737,0.0348542
486.9379,0.0359031
487.9021,0.0360688
488.8664,0.0353739
489.8306,0.0341971
490.7948,0.0330462
491.7591,0.0323472
492.7233,0.0322998
493.6875,0.0328449
494.6518,0.0337449
495.6160,0.0347125
496.5802,0.0355114
497.5445,0.036003
498.5087,0.0361599
499.4729,0.0360743
500.4372,0.0359564
501.4014,0.0360772
502.3656,0.036619
503.3299,0.0374968
504.2941,0.0383051
505.2583,0.0384778
506.2226,0.037572
507.1868,0.0355195
508.1510,0.0327095
509.1153,0.0298253
510.0795,0.0274966
511.0437,0.0259938
512.0080,0.0251831
512.9722,0.0247426
513.9365,0.0244512
514.9007,0.0243508
515.8649,0.0246857
516.8292,0.0256506
517.7934,0.0271087
518.7576,0.0285464
519.7219,0.0293887
520.6861,0.0293955
521.6503,0.0287621
522.6146,0.0279084
523.5788,0.0271988
524.5430,0.0267536
525.5073,0.0264171
526.4715,0.0259138
527.4357,0.0251099
528.4000,0.0241556
529.3642,0.0233783
530.3284,0.0230521
531.2927,0.0232299
532.2569,0.0237235
533.2211,0.0242233
534.1854,0.02449
535.1496,0.0244946
536.1138,0.0244085
537.0781,0.024464
538.0423,0.0248034
539.0065,0.0254266
539.9708,0.0262488
540.9350,0.027192
541.8992,0.0282201
542.8635,0.0292958
543.8277,0.0303127
544.7919,0.0310821
545.7562,0.0314084
546.7204,0.0312124
547.6846,0.0306071
548.6489,0.029859
549.6131,0.0292576
550.5773,0.0289853
551.5416,0.0290667
552.5058,0.0294084
553.4700,0.0298773
554.4343,0.0303587
555.3985,0.0307761
556.3627,0.03109
557.3270,0.0313089
558.2912,0.0315137
559.2554,0.0318673
560.2197,0.0325721
561.1839,0.0337738
562.1481,0.0354548
563.1124,0.037386
564.0766,0.0391816
565.0408,0.040438
566.0051,0.0408815
566.9693,0.0404564
567.9335,0.0393215
568.8978,0.0377684
569.8620,0.0361026
570.8262,0.0345529
571.7905,0.0332519
572.7547,0.0322707
573.7189,0.0316556
574.6832,0.0314268
575.6474,0.0315469
576.6116,0.0319003
577.5759,0.0323217
578.5401,0.0326656
579.5043,0.0328701
580.4686,0.032974
581.4328,0.0330847
582.3970,0.0333159
583.3613,0.0337254
584.3255,0.0342817
585.2897,0.0348778
586.2540,0.0353884
587.2182,0.0357417
588.1824,0.0359677
589.1467,0.0361948
590.1109,0.0365894
591.0751,0.0372624
592.0394,0.0381937
593.0036,0.0392399
593.9678,0.0402336
594.9321,0.0410971
595.8963,0.041876
596.8605,0.0426673
597.8248,0.0435025
598.7890,0.0442661
599.7532,0.0447178
600.7175,0.0446192
601.6817,0.0438855
602.6459,0.0426544
603.6102,0.0412299
604.5744,0.0399486
605.5386,0.039045
606.5029,0.0385763
607.4671,0.0384291
608.4313,0.0383971
609.3956,0.0382851
610.3598,0.0379939
611.3240,0.0375459
612.2883,0.0370456
613.2525,0.0366051
614.2167,0.0362788
615.1810,0.0360427
616.1452,0.0358238
617.1094,0.0355616
618.0737,0.0352625
619.0379,0.0350037
620.0021,0.0348829
620.9664,0.0349583
621.9306,0.0352234
622.8948,0.0356177
623.8591,0.0360588
624.8233,0.0364785
625.7875,0.0368533
626.7518,0.037214
627.7160,0.0376248
628.6802,0.0381428
629.6445,0.0387766
630.6087,0.0394635
631.5729,0.0400761
632.5372,0.0404575
633.5014,0.0404741
634.4656,0.0400612
635.4299,0.0392395
636.3941,0.0380925
637.3583,0.036723
638.3226,0.0352185
639.2868,0.0336429
640.2510,0.0320522
641.2153,0.030514
642.1795,0.0291122
643.1437,0.0279308
644.1080,0.0270239
645.0722,0.0263884
646.0364,0.0259542
647.0007,0.0256024
647.9649,0.0252109
648.9291,0.024713
649.8934,0.024136
650.8576,0.0235817
651.8218,0.0231578
652.7861,0.0229071
653.7503,0.0227851
654.7145,0.0226942
655.6788,0.0225503
656.6430,0.0223414
657.6072,0.0221395
658.5715,0.0220623
659.5357,0.022205
660.4999,0.0225766
661.4642,0.0230785
662.4284,0.023557
663.3926,0.0238863
664.3569,0.0240073
665.3211,0.0239133
666.2853,0.0236356
667.2496,0.023281
668.2138,0.02308
669.1780,0.0232279
670.1423,0.0235941
671.1065,0.0239048
672.0707,0.0240454
673.0350,0.0240405
673.9992,0.0239675
674.9634,0.0239236
675.9277,0.0240025
676.8919,0.0242583
677.8561,0.0246818
678.8204,0.025219
679.7846,0.0258096
680.7488,0.0264122
681.7131,0.0270102
682.6773,0.027611
683.6415,0.0282456
684.6058,0.0289628
685.5700,0.029807
686.5342,0.0307809
687.4985,0.0318032
688.4627,0.0326951
689.4269,0.0332197
690.3912,0.0331734
691.3554,0.0324831
692.3196,0.0312555
693.2839,0.0297497
694.2481,0.0282884
695.2123,0.0271535
696.1766,0.0265072
697.1408,0.026365
698.1050,0.0266202
699.0693,0.0271012
700.0335,0.0276326
700.9977,0.0280792
701.9620,0.0283714
702.9262,0.0285155
703.8904,0.0285932
704.8547,0.028743
705.8189,0.0291207
706.7831,0.029843
707.7474,0.0309334
708.7116,0.0322982
709.6758,0.0337507
710.6401,0.0350882
711.6043,0.0361965
712.5685,0.0371343
713.5328,0.038134
714.4970,0.0394909
715.4612,0.0413843
716.4255,0.0437325
717.3897,0.0461654
718.3539,0.0481461
719.3182,0.0492084
720.2824,0.0491982
721.2466,0.0483432
722.2109,0.0470687
723.1751,0.0457058
724.1393,0.0443336
725.1036,0.0428425
726.0678,0.041119
727.0320,0.0391964
727.9963,0.0372685
728.9605,0.0355716
729.9247,0.034238
730.8890,0.0332382
731.8532,0.0324383
732.8174,0.0317085
733.7817,0.0309913
734.7459,0.0302944
735.7101,0.0296393
736.6744,0.0290255
737.6386,0.0284386
738.6028,0.0278813
739.5671,0.0273872
740.5313,0.0269984
741.4955,0.0267303
742.4598,0.0265581
743.4240,0.0264388
744.3882,0.0263448
745.3525,0.0262795
746.3167,0.0262686
747.2809,0.0263535
748.2452,0.0266132
749.2094,0.0272019
750.1736,0.0283493
751.1379,0.0302749
752.1021,0.0330263
753.0663,0.0363275
754.0306,0.0395529
754.9948,0.0418967
755.9590,0.0426882
756.9233,0.0416909
757.8875,0.0392055
758.8517,0.0359168
759.8160,0.0325887
760.7802,0.02979
761.7444,0.0277732
762.7087,0.0265172
763.6729,0.0258519
764.6371,0.0255763
765.6014,0.0255187
766.5656,0.025547
767.5298,0.0255647
768.4941,0.0255164
769.4583,0.0253997
770.4225,0.0252656
771.3868,0.0251941
772.3510,0.0252573
773.3152,0.0254887
774.2795,0.0258738
775.2437,0.026361
776.2079,0.0268814
777.1722,0.0273693
778.1364,0.0277819
779.1006,0.0281223
780.0649,0.0284649
781.0291,0.028972
781.9933,0.029885
782.9576,0.0314752
783.9218,0.0339584
784.8860,0.0373944
785.8503,0.041612
786.8145,0.0462032
787.7787,0.0506074
788.7430,0.0542691
789.7072,0.0568048
790.6714,0.0581015
791.6357,0.0583031
792.5999,0.0577052
793.5641,0.0566259
794.5284,0.0553209
795.4926,0.0539645
796.4568,0.0526755
797.4211,0.0515434
798.3853,0.0506312
799.3495,0.0499595
800.3138,0.049497
801.2780,0.0491722
802.2422,0.0489021
803.2065,0.0486169
804.1707,0.0482643
805.1349,0.0477967
806.0992,0.0471599
807.0634,0.0462972
808.0276,0.0451722
808.9919,0.0437936
809.9561,0.0422274
810.9203,0.0405879
811.8846,0.0390139
812.8488,0.0376389
813.8130,0.0365656
814.7773,0.0358496
815.7415,0.0354929
816.7057,0.0354493
817.6700,0.0356407
818.6342,0.0359801
819.5984,0.0363959
820.5627,0.0368499
821.5269,0.0373435
822.4911,0.0379116
823.4554,0.0386053
824.4196,0.0394683
825.3839,0.0405166
826.3481,0.0417319
827.3123,0.0430744
828.2766,0.0445071
829.2408,0.046014
830.2050,0.0475913
831.1693,0.0492108
832.1335,0.0507736
833.0977,0.0520937
834.0620,0.0529338
835.0262,0.0530866
835.9904,0.0524611
836.9547,0.0511229
837.9189,0.0492659
838.8831,0.0471352
839.8474,0.0449461
840.8116,0.0428419
841.7758,0.0408983
842.7401,0.039156
843.7043,0.0376504
844.6685,0.0364239
845.6328,0.0355172
846.5970,0.0349541
847.5612,0.0347233
848.5255,0.0347663
849.4897,0.0349722
850.4539,0.0351907
851.4182,0.0352654
852.3824,0.0350837
853.3466,0.0346181
854.3109,0.0339347
855.2751,0.0331597
856.2393,0.0324184
857.2036,0.0317841
858.1678,0.0312651
859.1320,0.0308345
860.0963,0.0304784
861.0605,0.0302275
862.0247,0.0301495
862.9890,0.0303093
863.9532,0.0307238
864.9174,0.0313433
865.8817,0.0320689
866.8459,0.0327936
867.8101,0.0334391
868.7744,0.0339673
869.7386,0.0343663
870.7028,0.0346254
871.6671,0.0347231
872.6313,0.0346341
873.5955,0.0343508
874.5598,0.0339001
875.5240,0.0333439
876.4882,0.0327633
877.4525,0.032237
878.4167,0.0318273
879.3809,0.0315744
880.3452,0.0314963
881.3094,0.0315856
882.2736,0.0318024
883.2379,0.0320717
884.2021,0.0322955
885.1663,0.0323795
886.1306,0.0322673
887.0948,0.0319625
888.0590,0.0315273
889.0233,0.0310552
889.9875,0.0306327
890.9517,0.0303066
891.9160,0.0300732
892.8802,0.0298901
893.8444,0.0297042
894.8087,0.029478
895.7729,0.0292058
896.7371,0.0289118
897.7014,0.0286366
898.6656,0.0284185
899.6298,0.0282785
900.5941,0.0282125
901.5583,0.0281926
902.5225,0.0281756
903.4868,0.0281173
904.4510,0.0279899
905.4152,0.0277948
906.3795,0.0275645
907.3437,0.0273489
908.3079,0.0271934
909.2722,0.0271185
910.2364,0.0271147
911.2006,0.0271553
912.1649,0.027217
913.1291,0.0272944
914.0933,0.0273978
915.0576,0.0275379
916.0218,0.0277108
916.9860,0.0278959
917.9503,0.0280672
918.9145,0.028209
919.8787,0.0283235
920.8430,0.0284255
921.8072,0.02853
922.7714,0.0286429
923.7357,0.0287622
924.6999,0.0288859
925.6641,0.0290205
926.6284,0.0291827
927.5926,0.0293947
928.5568,0.0296787
929.5211,0.0300524
930.4853,0.0305253
931.4495,0.0310951
932.4138,0.0317428
933.3780,0.0324321
934.3422,0.0331163
935.3065,0.0337536
936.2707,0.0343223
937.2349,0.0348276
938.1992,0.0352941
939.1634,0.0357479
940.1276,0.0361999
941.0919,0.0366381
942.0561,0.0370335
943.0203,0.0373537
943.9846,0.0375744
944.9488,0.0376854
945.9130,0.0376896
946.8773,0.0376004
947.8415,0.0374399
948.8057,0.0372368
949.7700,0.0370214
950.7342,0.0368172
951.6984,0.0366327
952.6627,0.0364593
953.6269,0.0362776
954.5911,0.0360711
955.5554,0.035837
956.5196,0.0355893
957.4838,0.0353492
958.4481,0.0351315
959.4123,0.0349344
960.3765,0.0347418
961.3408,0.0345357
962.3050,0.034311
963.2692,0.0340813
964.2335,0.0338703
965.1977,0.0336961
966.1619,0.033558
967.1262,0.0334372
968.0904,0.0333107
969.0546,0.0331697
970.0189,0.0330286
970.9831,0.0329187
971.9473,0.0328708
972.9116,0.0328966
973.8758,0.032981
974.8400,0.0330873
975.8043,0.0331738
976.7685,0.0332107
977.7327,0.0331913
978.6970,0.0331352
979.6612,0.0330805
980.6254,0.0330706
981.5897,0.0331385
982.5539,0.0332972
983.5181,0.0335377
984.4824,0.0338387
985.4466,0.0341789
986.4108,0.0345461
987.3751,0.0349349
988.3393,0.035338
989.3035,0.0357376
990.2678,0.0361072
991.2320,0.0364245
992.1962,0.0366875
993.1605,0.0369224
994.1247,0.0371756
995.0889,0.0374928
996.0532,0.0378979
997.0174,0.0383836
997.9816,0.0389218
998.9459,0.0394852
999.9101,0.040068
1000.8743,0.04069
1001.8386,0.0413799
1002.8028,0.0421481
1003.7670,0.0429671
1004.7313,0.0437752
1005.6955,0.0445035
1006.6597,0.0451136
1007.6240,0.0456193
1008.5882,0.0460803
1009.5524,0.0465707
1010.5167,0.0471427
1011.4809,0.0478073
1012.4451,0.0485426
1013.4094,0.0493175
1014.3736,0.0501142
1015.3378,0.0509333
1016.3021,0.0517824
1017.2663,0.0526603
1018.2305,0.0535477
1019.1948,0.0544104
1020.1590,0.0552104
1021.1232,0.0559183
1022.0875,0.0565216
1023.0517,0.0570289
1024.0160,0.0574686
1024.9802,0.0578808
1025.9445,0.0583024
1026.9087,0.0587526
1027.8729,0.059225
1028.8372,0.0596937
1029.8014,0.0601294
1030.7656,0.0605173
1031.7299,0.0608654
1032.6941,0.0612008
1033.6583,0.0615578
1034.6226,0.0619682
1035.5868,0.0624557
1036.5510,0.063035
1037.5153,0.0637106
1038.4795,0.0644731
1039.4437,0.0652975
1040.4080,0.0661469
1041.3722,0.0669811
1042.3364,0.0677687
1043.3007,0.0684967
1044.2649,0.0691741
1045.2291,0.0698317
1046.1934,0.070515
1047.1576,0.0712715
1048.1218,0.0721345
1049.0861,0.0731085
1050.0503,0.0741672
1051.0145,0.0752663
1051.9788,0.0763698
1052.9430,0.0774716
1053.9072,0.0786015
1054.8715,0.0798071
1055.8357,0.0811245
1056.7999,0.0825555
1057.7642,0.0840658
1058.7284,0.0856048
1059.6926,0.0871354
1060.6569,0.0886544
1061.6211,0.0901931
1062.5853,0.0917975
1063.5496,0.0935016
1064.5138,0.0953081
1065.4780,0.0971885
1066.4423,0.0991013
1067.4065,0.101015
1068.3707,0.102922
1069.3350,0.104835
1070.2992,0.106771
1071.2634,0.108738
1072.2277,0.110745
1073.1919,0.112812
1074.1561,0.114978
1075.1204,0.117286
1076.0846,0.119747
1077.0488,0.122317
1078.0131,0.124913
1078.9773,0.127476
1079.9415,0.13004
1080.9058,0.132761
1081.8700,0.135875
1082.8342,0.139599
1083.7985,0.144038
1084.7627,0.149158
1085.7269,0.154832
1086.6912,0.160928
1087.6554,0.167383
1088.6196,0.174209
1089.5839,0.181432
1090.5481,0.189021
1091.5123,0.196827
1092.4766,0.204578
1093.4408,0.211922
1094.4050,0.218477
1095.3693,0.223889
1096.3335,0.227871
1097.2977,0.230246
1098.2620,0.230973
1099.2262,0.230168
1100.1904,0.228085
1101.1547,0.225072
1102.1189,0.221494
1103.0831,0.217648
1104.0474,0.213715
1105.0116,0.20973
1105.9758,0.2056
1106.9401,0.201153
1107.9043,0.196191
1108.8685,0.190537
1109.8328,0.184075
1110.7970,0.176772
1111.7612,0.168684
1112.7255,0.159971
1113.6897,0.150876
1114.6539,0.14171
1115.6182,0.132796
1116.5824,0.124433
1117.5466,0.116845
1118.5109,0.110172
1119.4751,0.104466
1120.4393,0.0997143
1121.4036,0.0958663
1122.3678,0.092854
1123.3320,0.0905993
1124.2963,0.0890025
1125.2605,0.0879206
1126.2247,0.0871531
1127.1890,0.0864537
1128.1532,0.0855782
1129.1174,0.0843529
1130.0817,0.0827304
1131.0459,0.0807969
1132.0101,0.0787235
1132.9744,0.0766876
1133.9386,0.0748056
1134.9028,0.0731097
1135.8671,0.0715704
1136.8313,0.0701407
1137.7955,0.0687914
1138.7598,0.0675195
1139.7240,0.0663339
1140.6882,0.0652369
1141.6525,0.0642183
1142.6167,0.0632635
1143.5809,0.0623653
1144.5452,0.0615285
1145.5094,0.0607643
1146.4736,0.0600809
1147.4379,0.0594785
1148.4021,0.0589529
1149.3663,0.058503
1150.3306,0.0581349
1151.2948,0.0578591
1152.2590,0.0576832
1153.2233,0.0576069
1154.1875,0.0576212
1155.1517,0.0577132
1156.1160,0.057871
1157.0802,0.0580855
1158.0444,0.0583505
1159.0087,0.0586622
1159.9729,0.0590225
1160.9371,0.0594421
1161.9014,0.0599408
1162.8656,0.0605416
1163.8298,0.061262
1164.7941,0.0621089
1165.7583,0.0630843
1166.7225,0.0641986
1167.6868,0.0654828
1168.6510,0.0669879
1169.6152,0.0687644
1170.5795,0.0708295
1171.5437,0.0731352
1172.5079,0.0755533
1173.4722,0.0778867
1174.4364,0.0799062
1175.4006,0.0814009
1176.3649,0.0822241
1177.3291,0.0823211
1178.2933,0.0817321
1179.2576,0.0805744
1180.2218,0.0790123
1181.1860,0.0772217
1182.1503,0.0753601
1183.1145,0.0735494
1184.0787,0.0718766
1185.0430,0.0704062
1186.0072,0.0691942
1186.9714,0.0682934
1187.9357,0.0677497
1188.8999,0.0675941
1189.8641,0.067839
1190.8284,0.0684806
1191.7926,0.0695056
1192.7568,0.0708981
1193.7211,0.0726449
1194.6853,0.0747385
1195.6495,0.0771778
1196.6138,0.0799646
1197.5780,0.0830938
1198.5422,0.086539
1199.5065,0.0902387
1200.4707,0.0940904
1201.4349,0.0979548
1202.3992,0.101671
1203.3634,0.105078
1204.3276,0.108036
1205.2919,0.110447
1206.2561,0.112273
1207.2203,0.113534
1208.1846,0.114312
1209.1488,0.114731
1210.1130,0.114943
1211.0773,0.115109
1212.0415,0.11539
1213.0057,0.115919
1213.9700,0.116796
1214.9342,0.11807
1215.8984,0.119738
1216.8627,0.121746
1217.8269,0.123998
1218.7911,0.126367
1219.7554,0.1287
1220.7196,0.130832
1221.6838,0.132595
1222.6481,0.133829
1223.6123,0.134407
1224.5765,0.13426
1225.5408,0.133404
1226.5050,0.131959
1227.4692,0.13013
1228.4335,0.128173
1229.3977,0.126335
1230.3619,0.124814
1231.3262,0.12373
1232.2904,0.123124
1233.2546,0.12298
1234.2189,0.123257
1235.1831,0.123899
1236.1473,0.124843
1237.1116,0.126002
1238.0758,0.127245
1239.0400,0.128405
1240.0043,0.129291
1240.9685,0.129722
1241.9327,0.129556
1242.8970,0.128706
1243.8612,0.127147
1244.8254,0.124911
1245.7897,0.122076
1246.7539,0.118761
1247.7181,0.115119
1248.6824,0.111327
1249.6466,0.107574
1250.6108,0.104037
1251.5751,0.100862
1252.5393,0.0981462
1253.5035,0.095934
1254.4678,0.0942201
1255.4320,0.0929588
1256.3962,0.0920738
1257.3605,0.0914645
1258.3247,0.0910126
1259.2889,0.0905929
1260.2532,0.0900953
1261.2174,0.0894521
1262.1816,0.0886592
1263.1459,0.0877785
1264.1101,0.0869221
1265.0743,0.0862247
1266.0386,0.0858181
1267.0028,0.0858122
1267.9670,0.0862862
1268.9313,0.0872878
1269.8955,0.0888342
1270.8597,0.0909134
1271.8240,0.0934843
1272.7882,0.0964787
1273.7524,0.0998081
1274.7167,0.103373
1275.6809,0.107071
1276.6451,0.110805
1277.6094,0.114495
1278.5736,0.118081
1279.5378,0.121541
1280.5021,0.12488
1281.4663,0.128119
1282.4305,0.131278
1283.3948,0.134346
1284.3590,0.137279
1285.3232,0.13999
1286.2875,0.142362
1287.2517,0.144267
1288.2159,0.145599
1289.1802,0.146311
1290.1444,0.146432
1291.1086,0.14608
1292.0729,0.145436
1293.0371,0.144718
1294.0013,0.144155
1294.9656,0.143943
1295.9298,0.144204
1296.8940,0.144955
1297.8583,0.146103
1298.8225,0.147476
1299.7867,0.148894
1300.7510,0.150223
1301.7152,0.151432
1302.6794,0.152594
1303.6437,0.153855
1304.6079,0.155373
1305.5721,0.157257
1306.5364,0.15952
1307.5006,0.162085
1308.4648,0.164825
1309.4291,0.167619
1310.3933,0.170384
1311.3575,0.173064
1312.3218,0.175603
1313.2860,0.177929
1314.2502,0.179956
1315.2145,0.181612
1316.1787,0.182845
1317.1429,0.183621
1318.1072,0.183907
1319.0714,0.183674
1320.0356,0.182909
1320.9999,0.181628
1321.9641,0.179864
1322.9283,0.177653
1323.8926,0.175028
1324.8568,0.172031
1325.8210,0.168733
1326.7853,0.165238
1327.7495,0.161666
1328.7137,0.158114
1329.6780,0.154641
1330.6422,0.151262
1331.6064,0.147984
1332.5707,0.144831
1333.5349,0.141851
1334.4991,0.139104
1335.4634,0.136623
1336.4276,0.134394
1337.3918,0.132346
1338.3561,0.130377
1339.3203,0.128417
1340.2845,0.126474
1341.2488,0.124626
1342.2130,0.122953
1343.1772,0.121491
1344.1415,0.120241
1345.1057,0.119183
1346.0699,0.118288
1347.0342,0.11751
1347.9984,0.116774
1348.9626,0.115982
1349.9269,0.115038
1350.8911,0.113868
1351.8553,0.112428
1352.8196,0.110692
1353.7838,0.108656
1354.7480,0.106358
1355.7123,0.103906
1356.6765,0.101455
1357.6407,0.099141
1358.6050,0.0970271
1359.5692,0.095097
1360.5334,0.0932961
1361.4977,0.0915916
1362.4619,0.0900102
1363.4261,0.0886122
1364.3904,0.0874251
1365.3546,0.0864229
1366.3188,0.0855669
1367.2831,0.0848551
1368.2473,0.0843441
1369.2115,0.0841491
1370.1758,0.0844338
1371.1400,0.0854001
1372.1042,0.087244
1373.0685,0.0900222
1374.0327,0.0934309
1374.9969,0.0967064
1375.9612,0.0989118
1376.9254,0.0994315
1377.8896,0.0981876
1378.8539,0.0955158
1379.8181,0.0919878
1380.7823,0.0882825
1381.7466,0.0850185
1382.7108,0.0825701
1383.6750,0.0810098
1384.6393,0.0802113
1385.6035,0.0799991
1386.5677,0.0802302
1387.5320,0.0807813
1388.4962,0.0815009
1389.4604,0.0822036
1390.4247,0.082698
1391.3889,0.0827916
1392.3531,0.0822802
1393.3174,0.0809752
1394.2816,0.0787992
1395.2458,0.0758933
1396.2101,0.0726022
1397.1743,0.0693029
1398.1385,0.0662527
1399.1028,0.063587
1400.0670,0.0613783
1401.0313,0.0596504
1401.9955,0.0583623
1402.9597,0.0574071
1403.9240,0.0566409
1404.8882,0.0559303
1405.8524,0.0552022
1406.8167,0.0544558
1407.7809,0.0537224
1408.7451,0.0530195
1409.7094,0.0523458
1410.6736,0.0517099
1411.6378,0.0511524
1412.6021,0.0507331
1413.5663,0.0504954
1414.5305,0.0504534
1415.4948,0.0506128
1416.4590,0.0509953
1417.4232,0.0516196
1418.3875,0.0524267
1419.3517,0.0532417
1420.3159,0.053903
1421.2802,0.0544146
1422.2444,0.0549154
1423.2086,0.0555522
1424.1729,0.056399
1425.1371,0.0574575
1426.1013,0.0587344
1427.0656,0.0603397
1428.0298,0.0625076
1428.9940,0.0654621
1429.9583,0.0691796
1430.9225,0.0732918
1431.8867,0.0773353
1432.8510,0.0811392
1433.8152,0.0849742
1434.7794,0.0894019
1435.7437,0.0948837
1436.7079,0.101254
1437.6721,0.107667
1438.6364,0.113453
1439.6006,0.11874
1440.5648,0.124086
1441.5291,0.129915
1442.4933,0.136286
1443.4575,0.142944
1444.4218,0.149522
1445.3860,0.155741
1446.3502,0.161445
1447.3145,0.166455
1448.2787,0.170452
1449.2429,0.173127
1450.2072,0.174473
1451.1714,0.174834
1452.1356,0.174661
1453.0999,0.174275
1454.0641,0.173756
1455.0283,0.172899
1455.9926,0.171202
1456.9568,0.168282
1457.9210,0.164803
1458.8853,0.162028
1459.8495,0.160357
1460.8137,0.159515
1461.7780,0.159185
1462.7422,0.159053
1463.7064,0.158573
1464.6707,0.156895
1465.6349,0.153319
1466.5991,0.1479
1467.5634,0.141213
1468.5276,0.13363
1469.4918,0.125051
1470.4561,0.115111
1471.4203,0.103734
1472.3845,0.0920158
1473.3488,0.0824639
1474.3130,0.0769942
1475.2772,0.0750648
1476.2415,0.0749576
1477.2057,0.0755289
1478.1699,0.0764365
1479.1342,0.0777378
1480.0984,0.0795606
1481.0626,0.0819261
1482.0269,0.0846848
1482.9911,0.0875615
1483.9553,0.0902711
1484.9196,0.0926086
1485.8838,0.0944291
1486.8480,0.0955235
1487.8123,0.095505
1488.7765,0.0939939
1489.7407,0.0912314
1490.7050,0.0882284
1491.6692,0.0858944
1492.6334,0.0845109
1493.5977,0.0840227
1494.5619,0.0843989
1495.5261,0.0857953
1496.4904,0.0885414
1497.4546,0.0928496
1498.4188,0.0983608
1499.3831,0.104229
1500.3473,0.109776
1501.3115,0.114779
1502.2758,0.119301
1503.2400,0.123561
1504.2042,0.128023
1505.1685,0.133624
1506.1327,0.14162
1507.0969,0.151548
1508.0612,0.159273
1509.0254,0.162131
1509.9896,0.161753
1510.9539,0.16009
1511.9181,0.157848
1512.8823,0.154914
1513.8466,0.150812
1514.8108,0.145089
1515.7750,0.137773
1516.7393,0.129553
1517.7035,0.121325
1518.6677,0.113446
1519.6320,0.105489
1520.5962,0.0968547
1521.5604,0.0877218
1522.5247,0.07914
1523.4889,0.0719733
1524.4531,0.0661278
1525.4174,0.0609173
1526.3816,0.0558505
1527.3458,0.0510039
1528.3101,0.0467719
1529.2743,0.0434034
1530.2385,0.0407943
1531.2028,0.0385722
1532.1670,0.0363285
1533.1312,0.0339257
1534.0955,0.0316479
1535.0597,0.0299053
1536.0239,0.0288342
1536.9882,0.0282843
1537.9524,0.0280211
1538.9166,0.0278673
1539.8809,0.0277854
1540.8451,0.0279033
1541.8093,0.028292
1542.7736,0.0287899
1543.7378,0.0292744
1544.7020,0.0297878
1545.6663,0.0304289
1546.6305,0.0312649
1547.5947,0.0323102
1548.5590,0.0335535
1549.5232,0.0350049
1550.4874,0.0367137
1551.4517,0.0387199
1552.4159,0.0409681
1553.3801,0.0432883
1554.3444,0.0455
1555.3086,0.047579
1556.2728,0.0498473
1557.2371,0.0531609
1558.2013,0.058461
1559.1655,0.0647467
1560.1298,0.0693906
1561.0940,0.0719683
1562.0582,0.0736637
1563.0225,0.0753439
1563.9867,0.0773484
1564.9509,0.0797629
1565.9152,0.0826767
1566.8794,0.0864004
1567.8436,0.0914949
1568.8079,0.0983189
1569.7721,0.106298
1570.7363,0.114036
1571.7006,0.120457
1572.6648,0.125461
1573.6290,0.12962
1574.5933,0.133602
1575.5575,0.137615
1576.5217,0.140957
1577.4860,0.14252
1578.4502,0.142037
1579.4144,0.140081
1580.3787,0.137173
1581.3429,0.133443
1582.3071,0.128825
1583.2714,0.123317
1584.2356,0.117111
1585.1998,0.110484
1586.1641,0.103618
1587.1283,0.0965557
1588.0925,0.0893254
1589.0568,0.0820713
1590.0210,0.075039
1590.9852,0.0684548
1591.9495,0.062434
1592.9137,0.057002
1593.8779,0.0521802
1594.8422,0.0480317
1595.8064,0.0446282
1596.7706,0.041985
1597.7349,0.0400374
1598.6991,0.0386725
1599.6633,0.0377707
1600.6276,0.0372267
1601.5918,0.036949
1602.5560,0.0368562
1603.5203,0.0368791
1604.4845,0.0369647
1605.4487,0.0370749
1606.4130,0.037178
1607.3772,0.0372422
1608.3414,0.0372379
1609.3057,0.037151
1610.2699,0.0369943
1611.2341,0.0368027
1612.1984,0.0366152
1613.1626,0.0364666
1614.1268,0.0363904
1615.0911,0.036419
1616.0553,0.036559
1617.0195,0.0367572
1617.9838,0.0369351
1618.9480,0.0370736
1619.9122,0.0372243
1620.8765,0.037463
1621.8407,0.0378518
1622.8049,0.0384032
1623.7692,0.0390525
1624.7334,0.0396857
1625.6976,0.0402195
1626.6619,0.0406329
1627.6261,0.0409282
1628.5903,0.0410966
1629.5546,0.04113
1630.5188,0.0410458
1631.4830,0.0408852
1632.4473,0.0406913
1633.4115,0.0404936
1634.3757,0.040303
1635.3400,0.0401118
1636.3042,0.0399069
1637.2684,0.0396945
1638.2327,0.0394998
1639.1969,0.0393443
1640.1611,0.0392395
1641.1254,0.0391932
1642.0896,0.0392157
1643.0538,0.03933
1644.0181,0.0395819
1644.9823,0.0400294
1645.9465,0.040665
1646.9108,0.0413096
1647.8750,0.0417158
1648.8392,0.0418272
1649.8035,0.0417829
1650.7677,0.0417831
1651.7319,0.0420695
1652.6962,0.0428893
1653.6604,0.0441389
1654.6246,0.0452228
1655.5889,0.0458649
1656.5531,0.0462713
1657.5173,0.0466561
1658.4816,0.047112
1659.4458,0.0476576
1660.4100,0.0482722
1661.3743,0.0489004
1662.3385,0.0494513
1663.3027,0.0498358
1664.2670,0.050033
1665.2312,0.0501298
1666.1954,0.0503454
1667.1597,0.051086
1668.1239,0.0529561
1669.0881,0.0564966
1670.0524,0.0615886
1671.0166,0.0673144
1671.9808,0.0728546
1672.9451,0.078154
1673.9093,0.0834998
1674.8735,0.0887467
1675.8378,0.093005
1676.8020,0.0952398
1677.7662,0.0952195
1678.7305,0.0935684
1679.6947,0.0910124
1680.6589,0.0877358
1681.6232,0.0830623
1682.5874,0.0755103
1683.5516,0.0641607
1684.5159,0.0511688
1685.4801,0.0404657
1686.4443,0.0333707
1687.4086,0.0287305
1688.3728,0.0252451
1689.3370,0.0222904
1690.3013,0.0197712
1691.2655,0.0178062
1692.2297,0.0164964
1693.1940,0.0158322
1694.1582,0.0157019
1695.1224,0.0159382
1696.0867,0.0163667
1697.0509,0.0168515
1698.0151,0.0173185
1698.9794,0.0177244
1699.9436,0.0180107
1700.9078,0.0181182
1701.8721,0.0180277
1702.8363,0.0177501
1703.8005,0.0172886
1704.7648,0.0166309
1705.7290,0.0157859
1706.6932,0.0148254
1707.6575,0.0138695
1708.6217,0.0130143
1709.5859,0.0122856
1710.5502,0.011662
1711.5144,0.0111213
1712.4786,0.0106632
1713.4429,0.0102974
1714.4071,0.0100057
1715.3713,0.00969456
1716.3356,0.00920019
1717.2998,0.00844519
1718.2640,0.00759503
1719.2283,0.00687813
1720.1925,0.00635964
1721.1567,0.00598462
1722.1210,0.0056861
1723.0852,0.00542846
1724.0494,0.00520849
1725.0137,0.00503983
1725.9779,0.0049337
1726.9421,0.00488878
1727.9064,0.00489461
1728.8706,0.00494038
1729.8348,0.00501769
1730.7991,0.0051128
1731.7633,0.00519007
1732.7275,0.00518114
1733.6918,0.00501904
1734.6560,0.00471541
1735.6202,0.00435947
1736.5845,0.00402699
1737.5487,0.00374446
1738.5129,0.00351687
1739.4772,0.00335174
1740.4414,0.00325817
1741.4056,0.0032288
1742.3699,0.00322936
1743.3341,0.00321568
1744.2983,0.00316114
1745.2626,0.00306718
1746.2268,0.00295404
1747.1910,0.00284289
1748.1553,0.00273615
1749.1195,0.00260721
1750.0837,0.00241966
1751.0480,0.00216962
1752.0122,0.00189677
1752.9764,0.00165139
1753.9407,0.00146686
1754.9049,0.00135653
1755.8691,0.00131861
1756.8334,0.00133952
1757.7976,0.00139782
1758.7618,0.00147036
1759.7261,0.00153663
1760.6903,0.00157873
1761.6545,0.00158181
1762.6188,0.00154089
1763.5830,0.00146758
1764.5472,0.00138636
1765.5115,0.00132297
1766.4757,0.00129565
1767.4399,0.00131223
1768.4042,0.00136977
1769.3684,0.00145396
1770.3326,0.00153787
1771.2969,0.00158525
1772.2611,0.00156747
1773.2253,0.0014882
1774.1896,0.0013831
1775.1538,0.00128914
1776.1180,0.00122286
1777.0823,0.00118157
1778.0465,0.00115238
1779.0107,0.00112113
1779.9750,0.00108106
1780.9392,0.00103827
1781.9034,0.00100749
1782.8677,0.001
1783.8319,0.00101533
1784.7961,0.00104414
1785.7604,0.0010787
1786.7246,0.00112102
1787.6888,0.00118197
1788.6531,0.00127347
1789.6173,0.00139921
1790.5815,0.0015457
1791.5458,0.00167784
1792.5100,0.0017528
1793.4742,0.00175289
1794.4385,0.00169545
1795.4027,0.00160592
1796.3669,0.0014987
1797.3312,0.0013839
1798.2954,0.00128125
1799.2596,0.00122315
1800.2239,0.00123584
1801.1881,0.00130975
1802.1523,0.00139467
1803.1166,0.00143567
1804.0808,0.0014125
1805.0450,0.00134712
1806.0093,0.00128406
1806.9735,0.00126405
1807.9377,0.00130337
1808.9020,0.00138546
1809.8662,0.0014702
1810.8304,0.00152029
1811.7947,0.00152778
1812.7589,0.00151563
1813.7231,0.0015147
1814.6874,0.00154112
1815.6516,0.00159001
1816.6158,0.00164287
1817.5801,0.00168123
1818.5443,0.00169943
1819.5085,0.00170801
1820.4728,0.00172562
1821.4370,0.00176648
1822.4012,0.00183196
1823.3655,0.00190942
1824.3297,0.00197888
1825.2939,0.0020254
1826.2582,0.0020474
1827.2224,0.00205293
1828.1866,0.00204859
1829.1509,0.00203313
1830.1151,0.00200195
1831.0793,0.00195725
1832.0436,0.00191011
1833.0078,0.00187148
1833.9720,0.0018443
1834.9363,0.00182436
1835.9005,0.00180738
1836.8647,0.00179699
1837.8290,0.00180717
1838.7932,0.001855
1839.7574,0.00194993
1840.7217,0.00208885
1841.6859,0.00225645
1842.6501,0.00242629
1843.6144,0.00256555
1844.5786,0.00265079
1845.5428,0.00268496
1846.5071,0.0026912
1847.4713,0.0026897
1848.4355,0.00268696
1849.3998,0.00268142
1850.3640,0.00267185
1851.3282,0.00266129
1852.2925,0.00265587
1853.2567,0.00266172
1854.2209,0.00268334
1855.1852,0.00272423
1856.1494,0.0027874
1857.1136,0.00287364
1858.0779,0.00297825
1859.0421,0.00308982
1860.0063,0.00319417
1860.9706,0.00328279
1861.9348,0.00335998
1862.8990,0.00344271
1863.8633,0.00355222
1864.8275,0.00370286
1865.7917,0.00389211
1866.7560,0.00409306
1867.7202,0.00425587
1868.6844,0.00433274
1869.6487,0.00431859
1870.6129,0.004258
1871.5771,0.0042054
1872.5414,0.00419018
1873.5056,0.00421383
1874.4698,0.00426209
1875.4341,0.00431664
1876.3983,0.00436367
1877.3625,0.00439821
1878.3268,0.00442302
1879.2910,0.00444299
1880.2552,0.00446032
1881.2195,0.0044742
1882.1837,0.00448439
1883.1479,0.00449475
1884.1122,0.00451272
1885.0764,0.00454438
1886.0406,0.00458834
1887.0049,0.0046328
1887.9691,0.00465881
1888.9333,0.00465084
1889.8976,0.00460943
1890.8618,0.00455431
1891.8260,0.00451189
1892.7903,0.00449823
1893.7545,0.004511
1894.7188,0.00453324
1895.6830,0.00454488
1896.6472,0.00453563
1897.6115,0.0045107
1898.5757,0.00448455
1899.5399,0.00446871
1900.5042,0.00446436
1901.4684,0.00446445
1902.4326,0.00446293
1903.3969,0.00446339
1904.3611,0.00447994
1905.3253,0.00452816
1906.2896,0.00461245
1907.2538,0.00471787
1908.2180,0.00481238
1909.1823,0.00486129
1910.1465,0.00484808
1911.1107,0.0047864
1912.0750,0.00471162
1913.0392,0.00465968
1914.0034,0.00465101
1914.9677,0.00468651
1915.9319,0.00475186
1916.8961,0.00482594
1917.8604,0.00489151
1918.8246,0.00494318
1919.7888,0.00498556
1920.7531,0.00502383
1921.7173,0.00505653
1922.6815,0.00507705
1923.6458,0.00508189
1924.6100,0.00507757
1925.5742,0.00507907
1926.5385,0.00510006
1927.5027,0.00514382
1928.4669,0.00520112
1929.4312,0.00525542
1930.3954,0.00529211
1931.3596,0.00530656
1932.3239,0.00530575
1933.2881,0.00530276
1934.2523,0.0053091
1935.2166,0.0053305
1936.1808,0.00536755
1937.1450,0.00541875
1938.1093,0.00548246
1939.0735,0.00555596
1940.0377,0.00563285
1941.0020,0.00570166
1941.9662,0.0057483
1942.9304,0.00576275
1943.8947,0.00574498
1944.8589,0.00570392
1945.8231,0.00565109
1946.7874,0.005596
1947.7516,0.00554663
1948.7158,0.00551195
1949.6801,0.00550199
1950.6443,0.00552414
1951.6085,0.00557836
1952.5728,0.00565545
1953.5370,0.00574009
1954.5012,0.00581754
1955.4655,0.00587933
1956.4297,0.00592495
1957.3939,0.0059587
1958.3582,0.00598507
1959.3224,0.00600687
1960.2866,0.00602686
1961.2509,0.00605031
1962.2151,0.00608483
1963.1793,0.00613638
1964.1436,0.00620436
1965.1078,0.00627889
1966.0720,0.0063434
1967.0363,0.00638209
1968.0005,0.00638854
1968.9647,0.00636896
1969.9290,0.00633754
1970.8932,0.00630925
1971.8574,0.00629571
1972.8217,0.00630513
1973.7859,0.00634281
1974.7501,0.00640979
1975.7144,0.00650008
1976.6786,0.00659985
1977.6428,0.00669076
1978.6071,0.00675677
1979.5713,0.00679117
1980.5355,0.00679949
1981.4998,0.00679627
1982.4640,0.00679764
1983.4282,0.0068142
1984.3925,0.00684863
1985.3567,0.00689844
1986.3209,0.00696048
1987.2852,0.00703332
1988.2494,0.00711539
1989.2136,0.00720066
1990.1779,0.00727588
1991.1421,0.00732371
1992.1063,0.00733175
1993.0706,0.00730189
1994.0348,0.00725136
1994.9990,0.00720395
1995.9633,0.00717854
1996.9275,0.00718259
1997.8917,0.00721207
1998.8560,0.00725572
1999.8202,0.00730082
2000.7844,0.00733812
2001.7487,0.00736392
2002.7129,0.00737969
2003.6771,0.00739067
2004.6414,0.0074046
2005.6056,0.00743014
2006.5698,0.00747405
2007.5341,0.00753785
2008.4983,0.00761611
2009.4625,0.00769845
2010.4268,0.00777492
2011.3910,0.00784185
2012.3552,0.00790384
2013.3195,0.00797039
2014.2837,0.00804882
2015.2479,0.00813802
2016.2122,0.00822687
2017.1764,0.00829955
2018.1406,0.00834455
2019.1049,0.00836158
2020.0691,0.00836062
2021.0333,0.00835513
2021.9976,0.00835495
2022.9618,0.00836342
2023.9260,0.00837908
2024.8903,0.00839964
2025.8545,0.00842452
2026.8187,0.00845447
2027.7830,0.00848886
2028.7472,0.00852365
2029.7114,0.00855198
2030.6757,0.00856746
2031.6399,0.00856763
2032.6041,0.00855568
2033.5684,0.00853953
2034.5326,0.00852945
2035.4968,0.00853534
2036.4611,0.00856459
2037.4253,0.00861992
2038.3895,0.00869766
2039.3538,0.00878708
2040.3180,0.00887231
2041.2822,0.00893724
2042.2465,0.00897202
2043.2107,0.0089767
2044.1749,0.00895996
2045.1392,0.00893383
2046.1034,0.00890805
2047.0676,0.00888776
2048.0320,0.00887456
2048.9961,0.00886869
2049.9604,0.0088703
2050.9246,0.00887881
2051.8889,0.00889191
2052.8530,0.00890604
2053.8174,0.00891883
2054.7815,0.00893136
2055.7458,0.00894847
2056.7100,0.00897596
2057.6743,0.00901656
2058.6384,0.00906758
2059.6028,0.00912182
2060.5669,0.0091715
2061.5313,0.00921195
2062.4954,0.00924291
2063.4597,0.00926691
2064.4238,0.0092863
2065.3882,0.00930125
2066.3523,0.00931021
2067.3167,0.00931203
2068.2808,0.00930793
2069.2451,0.00930164
2070.2092,0.00929776
2071.1736,0.00929973
2072.1377,0.00930826
2073.1021,0.00932143
2074.0662,0.00933572
2075.0305,0.00934755
2075.9946,0.00935454
2076.9590,0.0093563
2077.9231,0.00935482
2078.8875,0.00935423
2079.8516,0.00935967
2080.8159,0.00937525
2081.7800,0.00940206
2082.7444,0.00943751
2083.7085,0.00947688
2084.6729,0.00951635
2085.6370,0.00955551
2086.6013,0.00959732
2087.5654,0.00964527
2088.5298,0.00969939
2089.4939,0.00975427
2090.4583,0.00980068
2091.4224,0.00983052
2092.3867,0.00984156
2093.3508,0.00983915
2094.3152,0.00983348
2095.2793,0.00983472
2096.2437,0.00984866
2097.2078,0.00987529
2098.1721,0.00990996
2099.1362,0.00994595
2100.1006,0.00997637
2101.0647,0.0099951
2102.0291,0.0099975
2102.9932,0.00998159
2103.9575,0.00994967
2104.9216,0.00990899
2105.8860,0.00987039
2106.8501,0.00984546
2107.8145,0.00984295
2108.7786,0.00986622
2109.7429,0.00991218
2110.7070,0.00997203
2111.6714,0.0100331
2112.6355,0.0100821
2113.5999,0.0101098
2114.5640,0.0101146
2115.5283,0.0101039
2116.4924,0.0100903
2117.4568,0.0100841
2118.4209,0.0100874
2119.3853,0.0100923
2120.3494,0.0100862
2121.3137,0.0100609
2122.2778,0.0100192
2123.2422,0.00997484
2124.2063,0.00994512
2125.1707,0.00994152
2126.1348,0.00996344
2127.0991,0.00999917
2128.0632,0.0100327
2129.0276,0.0100524
2129.9917,0.0100554
2130.9561,0.0100473
2131.9202,0.0100371
2132.8845,0.0100317
2133.8486,0.0100347
2134.8130,0.0100466
2135.7771,0.0100682
2136.7415,0.0101002
2137.7056,0.0101407
2138.6699,0.0101827
2139.6340,0.0102145
2140.5984,0.0102255
2141.5625,0.0102133
2142.5269,0.010187
2143.4910,0.0101638
2144.4553,0.0101595
2145.4194,0.0101803
2146.3838,0.0102204
2147.3479,0.010267
2148.3123,0.0103085
2149.2764,0.0103406
2150.2407,0.0103674
2151.2048,0.010398
2152.1692,0.0104408
2153.1333,0.0104974
2154.0977,0.0105583
2155.0618,0.0106026
2156.0261,0.0106059
2156.9902,0.0105544
2157.9546,0.010459
2158.9187,0.0103581
2159.8831,0.0103019
2160.8472,0.0103255
2161.8115,0.0104263
2162.7756,0.010564
2163.7400,0.0106842
2164.7041,0.0107511
2165.6685,0.0107659
2166.6326,0.0107589
2167.5969,0.0107634
2168.5610,0.0107924
2169.5254,0.0108336
2170.4895,0.0108657
2171.4539,0.0108776
2172.4180,0.0108767
2173.3823,0.0108801
2174.3464,0.0108991
2175.3108,0.0109311
2176.2749,0.010964
2177.2393,0.0109876
2178.2034,0.0110016
2179.1677,0.0110137
2180.1318,0.0110312
2181.0962,0.0110539
2182.0603,0.0110737
2183.0247,0.0110804
2183.9888,0.0110678
2184.9531,0.0110368
2185.9172,0.0109945
2186.8816,0.0109511
2187.8457,0.0109159
2188.8101,0.0108942
2189.7742,0.0108859
2190.7385,0.0108859
2191.7026,0.0108865
2192.6670,0.0108827
2193.6311,0.0108757
2194.5955,0.0108728
2195.5596,0.0108834
2196.5239,0.010913
2197.4880,0.0109597
2198.4524,0.0110145
2199.4165,0.0110651
2200.3809,0.0111018
2201.3450,0.0111208
2202.3093,0.0111251
2203.2734,0.0111223
2204.2378,0.0111206
2205.2019,0.0111259
2206.1663,0.0111398
2207.1304,0.0111609
2208.0947,0.0111867
2209.0588,0.0112167
2210.0232,0.0112526
2210.9873,0.011296
2211.9517,0.0113452
2212.9158,0.0113937
2213.8801,0.0114318
2214.8442,0.0114522
2215.8086,0.0114547
2216.7727,0.0114473
2217.7371,0.0114426
2218.7012,0.0114512
2219.6655,0.011476
2220.6296,0.0115115
2221.5940,0.0115483
2222.5581,0.0115791
2223.5225,0.0116037
2224.4866,0.0116281
2225.4509,0.0116602
2226.4150,0.0117037
2227.3794,0.0117555
2228.3435,0.0118073
2229.3079,0.0118507
2230.2720,0.0118816
2231.2363,0.0119019
2232.2004,0.0119168
2233.1648,0.0119311
2234.1289,0.0119468
2235.0933,0.0119647
2236.0574,0.0119865
2237.0217,0.012016
2237.9858,0.0120577
2238.9502,0.0121129
2239.9143,0.0121776
2240.8787,0.0122435
2241.8428,0.0123032
2242.8071,0.0123559
2243.7712,0.0124094
2244.7356,0.0124766
2245.6997,0.0125684
2246.6641,0.0126873
2247.6282,0.0128261
2248.5925,0.0129707
2249.5566,0.013107
2250.5210,0.0132261
2251.4851,0.0133252
2252.4495,0.013405
2253.4136,0.0134663
2254.3779,0.0135088
2255.3420,0.0135326
2256.3064,0.0135408
2257.2705,0.0135412
2258.2349,0.013544
2259.1990,0.0135576
2260.1633,0.0135862
2261.1274,0.0136297
2262.0918,0.0136855
2263.0559,0.0137506
2264.0203,0.013821
2264.9844,0.0138892
2265.9487,0.0139441
2266.9128,0.0139741
2267.8772,0.0139727
2268.8413,0.0139433
2269.8057,0.0138983
2270.7698,0.0138531
2271.7341,0.0138191
2272.6982,0.0137987
2273.6626,0.0137874
2274.6267,0.0137784
2275.5911,0.0137674
2276.5552,0.0137539
2277.5195,0.0137402
2278.4836,0.0137293
2279.4480,0.0137241
2280.4121,0.0137259
2281.3765,0.0137338
2282.3406,0.0137438
2283.3049,0.0137493
2284.2690,0.0137442
2285.2334,0.0137269
2286.1975,0.0137038
2287.1619,0.0136873
2288.1260,0.0136906
2289.0903,0.0137198
2290.0544,0.0137703
2291.0188,0.0138294
2291.9829,0.0138834
2292.9473,0.0139256
2293.9114,0.0139595
2294.8757,0.013995
2295.8398,0.0140403
2296.8042,0.0140964
2297.7683,0.014156
2298.7327,0.0142103
2299.6968,0.0142574
2300.6611,0.0143061
2301.6252,0.0143736
2302.5896,0.0144742
2303.5537,0.0146098
2304.5181,0.014765
2305.4822,0.0149129
2306.4465,0.0150254
2307.4106,0.0150862
2308.3750,0.0150985
2309.3391,0.0150849
2310.3035,0.0150777
2311.2676,0.0151049
2312.2319,0.0151766
2313.1960,0.0152811
2314.1604,0.0153908
2315.1245,0.015477
2316.0889,0.0155243
2317.0530,0.0155391
2318.0173,0.015548
2318.9814,0.0155834
2319.9458,0.0156625
2320.9099,0.0157697
2321.8743,0.01586
2322.8384,0.0158898
2323.8027,0.0158548
2324.7668,0.015803
2325.7312,0.0158069
2326.6953,0.0159118
2327.6597,0.0160937
2328.6238,0.0162581
2329.5881,0.0162893
2330.5522,0.0161289
2331.5166,0.0158261
2332.4807,0.0155152
2333.4451,0.0153334
2334.4092,0.0153454
2335.3735,0.0155237
2336.3376,0.015785
2337.3020,0.0160479
2338.2661,0.0162752
2339.2305,0.0164752
2340.1946,0.016663
2341.1589,0.0168159
2342.1230,0.0168646
2343.0874,0.0167458
2344.0515,0.0164916
2345.0159,0.0162321
2345.9800,0.0160774
2346.9443,0.0160481
2347.9084,0.0161102
2348.8728,0.0162229
2349.8369,0.0163563
2350.8013,0.0164884
2351.7654,0.0165978
2352.7297,0.0166556
2353.6938,0.0166316
2354.6582,0.0165261
2355.6223,0.0164104
2356.5867,0.0164183
2357.5508,0.0166714
2358.5151,0.0171865
2359.4792,0.0178117
2360.4436,0.0182709
2361.4077,0.0183458
2362.3721,0.0180382
2363.3362,0.0175596
2364.3005,0.0171841
2365.2646,0.0170832
2366.2290,0.0172472
2367.1931,0.0175336
2368.1575,0.0177815
2369.1216,0.0178956
2370.0859,0.0178636
2371.0500,0.0177263
2372.0144,0.0175359
2372.9785,0.0173311
2373.9429,0.0171315
2374.9070,0.0169441
2375.8713,0.0167718
2376.8354,0.0166189
2377.7998,0.0164922
2378.7639,0.0163989
2379.7283,0.0163428
2380.6924,0.0163199
2381.6567,0.0163178
2382.6208,0.0163191
2383.5852,0.0163075
2384.5493,0.0162737
2385.5137,0.0162189
2386.4778,0.0161535
2387.4421,0.0160917
2388.4063,0.0160465
2389.3706,0.0160243
2390.3347,0.0160246
2391.2991,0.0160407
2392.2632,0.0160629
2393.2275,0.0160808
2394.1917,0.0160859
2395.1560,0.0160747
2396.1201,0.0160517
2397.0845,0.0160299
2398.0486,0.0160268
2399.0129,0.016057
2399.9771,0.0161254
2400.9414,0.0162244
2401.9055,0.0163368
2402.8699,0.0164429
2403.8340,0.0165268
2404.7983,0.0165798
2405.7625,0.016601
2406.7268,0.0165964
2407.6909,0.0165786
2408.6553,0.0165645
2409.6194,0.0165719
2410.5837,0.0166134
2411.5479,0.0166917
2412.5122,0.0167984
2413.4763,0.016919
2414.4407,0.0170387
2415.4048,0.0171478
2416.3691,0.0172419
2417.3333,0.0173184
2418.2976,0.0173749
2419.2617,0.0174092
2420.2261,0.0174231
2421.1902,0.0174235
2422.1545,0.0174208
2423.1187,0.0174239
2424.0830,0.017435
2425.0471,0.0174491
2426.0115,0.0174582
2426.9756,0.0174558
2427.9399,0.0174414
2428.9041,0.01742
2429.8684,0.0173997
2430.8325,0.0173887
2431.7969,0.0173926
2432.7610,0.0174132
2433.7253,0.0174475
2434.6895,0.0174875
2435.6538,0.0175235
2436.6179,0.0175469
2437.5823,0.0175547
2438.5464,0.0175496
2439.5107,0.0175383
2440.4749,0.0175277
2441.4392,0.0175215
2442.4033,0.0175209
2443.3677,0.0175251
2444.3318,0.0175328
2445.2961,0.0175421
2446.2603,0.01755
2447.2246,0.017554
2448.1887,0.0175543
2449.1531,0.0175548
2450.1172,0.0175614
2451.0815,0.0175778
2452.0457,0.0176014
2453.0100,0.0176236
2453.9741,0.0176347
2454.9385,0.0176306
2455.9026,0.0176154
2456.8669,0.017598
2457.8311,0.0175858
2458.7954,0.0175798
2459.7595,0.0175758
2460.7239,0.0175701
2461.6880,0.0175652
2462.6523,0.0175703
2463.6165,0.0175966
2464.5808,0.0176483
2465.5449,0.0177186
2466.5093,0.0177916
2467.4734,0.0178504
2468.4377,0.0178855
2469.4019,0.0178981
2470.3662,0.0178973
2471.3303,0.0178931
2472.2947,0.0178904
2473.2588,0.0178884
2474.2231,0.0178841
2475.1873,0.0178775
2476.1516,0.0178741
2477.1157,0.0178823
2478.0801,0.0179079
2479.0442,0.01795
2480.0085,0.0180005
2480.9727,0.0180487
2481.9370,0.0180872
2482.9011,0.0181155
2483.8655,0.018139
2484.8296,0.0181642
2485.7939,0.0181942
2486.7581,0.018227
2487.7224,0.018258
2488.6865,0.0182852
2489.6509,0.0183115
2490.6150,0.0183438
2491.5793,0.018388
2492.5435,0.0184442
2493.5078,0.0185053
2494.4719,0.0185608
2495.4363,0.0186021
2496.4004,0.0186282
2497.3647,0.0186466
2498.3289,0.0186708
2499.2932,0.0187143
2500.2573,0.0187846
2501.2217,0.0188799
2502.1858,0.0189879
2503.1501,0.0190902
2504.1143,0.01917
2505.0786,0.01922
2506.0427,0.0192464
2507.0071,0.0192655
2507.9712,0.0192953
2508.9355,0.0193446
2509.8997,0.0194107
2510.8640,0.0194828
2511.8281,0.019552
2512.7925,0.0196163
2513.7566,0.0196798
2514.7209,0.0197457
2515.6851,0.0198119
2516.6494,0.0198733
2517.6135,0.0199296
2518.5779,0.0199885
2519.5420,0.0200626
2520.5063,0.020158
2521.4705,0.0202661
2522.4348,0.020366
2523.3989,0.0204375
2524.3633,0.0204754
2525.3274,0.0204936
2526.2917,0.0205163
2527.2559,0.020561
2528.2202,0.0206283
2529.1843,0.0207033
2530.1487,0.0207691
2531.1128,0.0208188
2532.0771,0.0208606
2533.0413,0.0209102
2534.0056,0.0209798
2534.9697,0.0210693
2535.9341,0.0211672
2536.8982,0.0212569
2537.8625,0.0213251
2538.8267,0.0213669
2539.7910,0.0213858
2540.7551,0.0213905
2541.7195,0.0213919
2542.6836,0.0214006
2543.6479,0.0214266
2544.6121,0.0214775
2545.5764,0.0215566
2546.5405,0.0216606
2547.5049,0.0217791
2548.4690,0.0218972
2549.4333,0.0220017
2550.3975,0.0220863
2551.3618,0.0221543
2552.3259,0.0222159
2553.2903,0.0222811
2554.2544,0.0223539
2555.2188,0.0224306
2556.1829,0.0225034
2557.1472,0.022566
2558.1113,0.0226175
2559.0757,0.0226626
2560.0398,0.0227089
2561.0042,0.0227628
2561.9683,0.0228277
2562.9326,0.0229022
2563.8967,0.0229809
2564.8611,0.0230569
2565.8252,0.0231245
2566.7896,0.0231837
2567.7537,0.0232416
2568.7180,0.0233101
2569.6821,0.0234006
2570.6465,0.0235179
2571.6106,0.0236585
2572.5750,0.0238132
2573.5391,0.0239721
2574.5034,0.024128
2575.4675,0.0242764
2576.4319,0.0244132
2577.3960,0.0245345
2578.3604,0.0246387
2579.3245,0.024729
2580.2888,0.0248137
2581.2529,0.0249014
2582.2173,0.0249958
2583.1814,0.0250927
2584.1458,0.0251841
2585.1099,0.0252643
2586.0742,0.0253348
2587.0383,0.0254034
2588.0027,0.0254775
2588.9668,0.0255581
2589.9312,0.0256379
2590.8953,0.0257063
2591.8596,0.0257574
2592.8237,0.0257954
2593.7881,0.0258343
2594.7522,0.0258923
2595.7166,0.0259826
2596.6807,0.0261083
2597.6450,0.0262605
2598.6091,0.0264232
2599.5735,0.0265793
2600.5376,0.0267161
2601.5020,0.0268274
2602.4661,0.0269128
2603.4304,0.0269756
2604.3945,0.0270214
2605.3589,0.0270565
2606.3230,0.0270879
2607.2874,0.0271211
2608.2515,0.027158
2609.2158,0.0271963
2610.1799,0.0272312
2611.1443,0.0272598
2612.1084,0.0272856
2613.0728,0.0273186
2614.0369,0.027371
2615.0012,0.02745
2615.9653,0.027553
2616.9297,0.0276689
2617.8938,0.027784
2618.8582,0.0278894
2619.8223,0.0279832
2620.7866,0.0280674
2621.7507,0.028142
2622.7151,0.0282031
2623.6792,0.0282464
2624.6436,0.0282751
2625.6077,0.0283037
2626.5720,0.0283531
2627.5361,0.0284389
2628.5005,0.0285597
2629.4646,0.0286958
2630.4290,0.0288184
2631.3931,0.0289058
2632.3574,0.0289547
2633.3215,0.0289808
2634.2859,0.0290075
2635.2500,0.0290536
2636.2144,0.0291254
2637.1785,0.0292183
2638.1428,0.029323
2639.1069,0.0294321
2640.0713,0.0295419
2641.0354,0.0296511
2641.9998,0.0297596
2642.9639,0.0298679
2643.9282,0.0299768
2644.8923,0.0300863
2645.8567,0.0301934
2646.8208,0.0302918
2647.7852,0.0303743
2648.7493,0.0304382
2649.7136,0.0304884
2650.6777,0.0305369
2651.6421,0.0305976
2652.6062,0.0306798
2653.5706,0.0307858
2654.5347,0.0309121
2655.4990,0.0310537
2656.4631,0.0312082
2657.4275,0.031376
2658.3916,0.0315572
2659.3560,0.0317483
2660.3201,0.0319397
2661.2844,0.0321179
2662.2485,0.0322699
2663.2129,0.0323887
2664.1770,0.0324766
2665.1414,0.0325437
2666.1055,0.0326028
2667.0698,0.0326622
2668.0339,0.0327234
2668.9983,0.0327822
2669.9624,0.0328349
2670.9268,0.0328831
2671.8909,0.0329342
2672.8552,0.0329963
2673.8193,0.0330723
2674.7837,0.0331567
2675.7478,0.0332379
2676.7122,0.033304
2677.6763,0.0333483
2678.6406,0.0333704
2679.6047,0.0333747
2680.5691,0.0333675
2681.5332,0.0333559
2682.4976,0.0333477
2683.4617,0.0333511
2684.4260,0.0333719
2685.3901,0.0334098
2686.3545,0.0334548
2687.3186,0.0334896
2688.2830,0.0334959
2689.2471,0.0334637
2690.2114,0.033398
2691.1755,0.0333188
2692.1399,0.0332529
2693.1040,0.0332207
2694.0684,0.0332257
2695.0325,0.033251
2695.9968,0.0332681
2696.9609,0.0332519
2697.9253,0.0331953
2698.8894,0.0331145
2699.8538,0.0330419
2700.8179,0.0330108
2701.7822,0.0330403
2702.7463,0.0331281
2703.7107,0.0332546
2704.6748,0.0333953
2705.6392,0.0335331
2706.6033,0.0336639
2707.5676,0.033796
2708.5317,0.0339421
2709.4961,0.0341118
2710.4602,0.0343056
2711.4246,0.0345143
2712.3887,0.0347225
2713.3530,0.0349145
2714.3171,0.0350821
2715.2815,0.035229
2716.2456,0.0353706
2717.2100,0.0355262
2718.1741,0.0357084
2719.1384,0.035914
2720.1025,0.0361248
2721.0669,0.0363181
2722.0310,0.0364828
2722.9954,0.0366296
2723.9595,0.0367863
2724.9238,0.0369812
2725.8879,0.037223
2726.8523,0.037492
2727.8164,0.0377488
2728.7808,0.0379555
2729.7449,0.0380951
2730.7092,0.038178
2731.6733,0.0382312
2732.6377,0.0382811
2733.6018,0.0383414
2734.5662,0.0384113
2735.5303,0.0384827
2736.4946,0.0385478
2737.4587,0.0386024
2738.4231,0.0386444
2739.3872,0.0386735
2740.3516,0.0386929
2741.3157,0.0387119
2742.2800,0.0387435
2743.2441,0.0387981
2744.2085,0.0388757
2745.1726,0.0389637
2746.1370,0.0390428
2747.1011,0.0390975
2748.0654,0.0391244
2749.0295,0.0391321
2749.9939,0.0391347
2750.9580,0.0391447
2751.9224,0.0391685
2752.8865,0.0392079
2753.8508,0.0392624
2754.8149,0.0393311
2755.7793,0.0394115
2756.7434,0.0394974
2757.7078,0.0395798
2758.6719,0.039649
2759.6362,0.0396979
2760.6003,0.0397258
2761.5647,0.0397386
2762.5288,0.0397488
2763.4932,0.0397729
2764.4573,0.0398281
2765.4216,0.0399274
2766.3857,0.040075
2767.3501,0.0402646
2768.3142,0.0404808
2769.2786,0.040705
2770.2427,0.0409233
2771.2070,0.041132
2772.1711,0.0413397
2773.1355,0.0415638
2774.0996,0.0418239
2775.0640,0.0421342
2776.0281,0.0424972
2776.9924,0.0429034
2777.9565,0.0433348
2778.9209,0.0437734
2779.8850,0.0442088
2780.8494,0.0446415
2781.8135,0.0450813
2782.7778,0.0455403
2783.7419,0.0460253
2784.7063,0.0465351
2785.6704,0.0470621
2786.6348,0.0475986
2787.5989,0.048141
2788.5632,0.0486911
2789.5273,0.0492522
2790.4917,0.0498258
2791.4558,0.0504109
2792.4202,0.0510076
2793.3843,0.0516204
2794.3486,0.0522586
2795.3127,0.0529312
2796.2771,0.0536396
2797.2412,0.0543754
2798.2056,0.0551251
2799.1697,0.0558809
2800.1340,0.0566494
2801.0981,0.0574507
2802.0625,0.058308
2803.0266,0.0592324
2803.9910,0.0602148
2804.9551,0.06123
2805.9194,0.0622508
2806.8835,0.0632639
2807.8479,0.0642768
2808.8120,0.0653125
2809.7764,0.0663962
2810.7405,0.0675422
2811.7048,0.068749
2812.6689,0.0700038
2813.6333,0.0712933
2814.5974,0.0726138
2815.5618,0.0739753
2816.5259,0.075398
2817.4902,0.0769041
2818.4543,0.0785093
2819.4187,0.080219
2820.3828,0.0820313
2821.3472,0.0839452
2822.3113,0.0859701
2823.2756,0.0881306
2824.2397,0.0904644
2825.2041,0.0930156
2826.1682,0.0958276
2827.1326,0.0989414
2828.0967,0.102401
2829.0610,0.106258
2830.0251,0.110581
2830.9895,0.11545
2831.9536,0.120951
2832.9180,0.127173
2833.8821,0.134202
2834.8464,0.14213
2835.8105,0.151053
2836.7749,0.16107
2837.7390,0.172271
2838.7034,0.184721
2839.6675,0.198457
2840.6318,0.213483
2841.5959,0.229782
2842.5603,0.247318
2843.5244,0.266039
2844.4888,0.285848
2845.4529,0.306556
2846.4172,0.327817
2847.3813,0.349065
2848.3457,0.369471
2849.3098,0.387972
2850.2742,0.403362
2851.2383,0.414477
2852.2026,0.420401
2853.1667,0.420654
2854.1311,0.4153
2855.0952,0.404934
2856.0596,0.390556
2857.0237,0.373382
2857.9880,0.354662
2858.9521,0.335538
2859.9165,0.316971
2860.8806,0.299712
2861.8450,0.284292
2862.8091,0.271036
2863.7734,0.260077
2864.7375,0.251384
2865.7019,0.244786
2866.6660,0.239983
2867.6304,0.236562
2868.5945,0.234011
2869.5588,0.231775
2870.5229,0.229333
2871.4873,0.226303
2872.4514,0.22253
2873.4158,0.218117
2874.3799,0.213396
2875.3442,0.208825
2876.3083,0.204864
2877.2727,0.20186
2878.2368,0.199998
2879.2012,0.199309
2880.1653,0.199737
2881.1296,0.201209
2882.0938,0.203679
2883.0581,0.207123
2884.0222,0.211508
2884.9866,0.216748
2885.9507,0.222697
2886.9150,0.229174
2887.8792,0.236013
2888.8435,0.243092
2889.8076,0.250348
2890.7720,0.257748
2891.7361,0.265263
2892.7004,0.272854
2893.6646,0.280471
2894.6289,0.288071
2895.5930,0.295637
2896.5574,0.303189
2897.5215,0.310785
2898.4858,0.318505
2899.4500,0.32643
2900.4143,0.334628
2901.3784,0.34314
2902.3428,0.351987
2903.3069,0.361195
2904.2712,0.370813
2905.2354,0.380935
2906.1997,0.391698
2907.1638,0.403271
2908.1282,0.415833
2909.0923,0.429557
2910.0566,0.444583
2911.0208,0.460995
2911.9851,0.478808
2912.9492,0.497951
2913.9136,0.518261
2914.8777,0.539474
2915.8420,0.561196
2916.8062,0.582884
2917.7705,0.603821
2918.7346,0.623157
2919.6990,0.639981
2920.6631,0.653443
2921.6274,0.662865
2922.5916,0.667821
2923.5559,0.668162
2924.5200,0.664009
2925.4844,0.6557
2926.4485,0.643713
2927.4128,0.628574
2928.3770,0.610795
2929.3413,0.590839
2930.3054,0.569144
2931.2698,0.54615
2932.2339,0.522307
2933.1982,0.498061
2934.1624,0.473814
2935.1267,0.449906
2936.0908,0.426622
2937.0552,0.404217
2938.0193,0.382942
2938.9836,0.363049
2939.9478,0.344775
2940.9121,0.328315
2941.8762,0.313807
2942.8406,0.301328
2943.8047,0.290903
2944.7690,0.282522
2945.7332,0.27614
2946.6975,0.271673
2947.6616,0.268976
2948.6260,0.267816
2949.5901,0.267855
2950.5544,0.268647
2951.5186,0.269666
2952.4829,0.270364
2953.4470,0.270245
2954.4114,0.268938
2955.3755,0.266244
2956.3398,0.262129
2957.3040,0.25667
2958.2683,0.249991
2959.2324,0.242209
2960.1968,0.233417
2961.1609,0.223695
2962.1252,0.213134
2963.0894,0.201864
2964.0537,0.190056
2965.0178,0.177923
2965.9822,0.165701
2966.9463,0.153621
2967.9106,0.141886
2968.8748,0.130657
2969.8391,0.120045
2970.8032,0.110124
2971.7676,0.100944
2972.7317,0.0925327
2973.6960,0.0848988
2974.6602,0.078023
2975.6245,0.07186
2976.5886,0.0663471
2977.5530,0.0614193
2978.5171,0.05702
2979.4814,0.0531017
2980.4456,0.0496196
2981.4099,0.046524
2982.3740,0.04376
2983.3384,0.041276
2984.3025,0.0390335
2985.2668,0.0370115
2986.2310,0.035202
2987.1953,0.0335979
2988.1594,0.0321834
2989.1238,0.0309312
2990.0879,0.0298088
2991.0522,0.0287871
2992.0164,0.0278476
2992.9807,0.0269816
2993.9448,0.0261855
2994.9092,0.0254556
2995.8733,0.0247871
2996.8376,0.0241772
2997.8018,0.0236291
2998.7661,0.0231511
2999.7302,0.0227508
3000.6946,0.0224255
3001.6587,0.0221568
3002.6230,0.0219128
3003.5872,0.0216588
3004.5515,0.021373
3005.5156,0.021058
3006.4800,0.0207401
3007.4441,0.0204584
3008.4084,0.0202462
3009.3726,0.0201164
3010.3369,0.0200555
3011.3010,0.0200297
3012.2654,0.0200003
3013.2295,0.019941
3014.1938,0.0198482
3015.1580,0.0197397
3016.1223,0.0196434
3017.0864,0.0195826
3018.0508,0.0195662
3019.0149,0.019586
3019.9792,0.0196242
3020.9434,0.0196626
3021.9077,0.0196922
3022.8718,0.0197158
3023.8362,0.019744
3024.8003,0.0197866
3025.7646,0.0198438
3026.7288,0.0199023
3027.6931,0.0199383
3028.6572,0.0199259
3029.6216,0.0198474
3030.5857,0.0197012
3031.5500,0.0195047
3032.5142,0.0192898
3033.4785,0.0190945
3034.4426,0.0189517
3035.4070,0.0188817
3036.3711,0.018888
3037.3354,0.0189582
3038.2996,0.0190678
3039.2639,0.019188
3040.2280,0.0192934
3041.1924,0.0193689
3042.1565,0.0194118
3043.1208,0.0194299
3044.0850,0.0194361
3045.0493,0.0194432
3046.0134,0.0194603
3046.9778,0.0194919
3047.9419,0.0195396
3048.9063,0.0196047
3049.8704,0.0196897
3050.8347,0.0197987
3051.7988,0.0199341
3052.7632,0.0200926
3053.7273,0.0202627
3054.6917,0.0204265
3055.6558,0.0205676
3056.6201,0.0206789
3057.5842,0.0207671
3058.5486,0.0208477
3059.5127,0.0209354
3060.4771,0.0210367
3061.4412,0.0211517
3062.4055,0.0212835
3063.3696,0.021446
3064.3340,0.0216641
3065.2981,0.0219615
3066.2625,0.0223457
3067.2266,0.0228001
3068.1909,0.0232903
3069.1550,0.0237797
3070.1194,0.0242423
3071.0835,0.024665
3072.0479,0.0250416
3073.0120,0.0253649
3073.9763,0.0256261
3074.9404,0.025819
3075.9048,0.0259455
3076.8689,0.026013
3077.8333,0.0260272
3078.7974,0.0259838
3079.7617,0.0258705
3080.7258,0.025677
3081.6902,0.0254083
3082.6543,0.0250888
3083.6187,0.0247535
3084.5828,0.0244327
3085.5471,0.0241395
3086.5112,0.0238703
3087.4756,0.023614
3088.4397,0.0233648
3089.4041,0.023128
3090.3682,0.0229161
3091.3325,0.0227405
3092.2966,0.0226052
3093.2610,0.0225062
3094.2251,0.0224361
3095.1895,0.0223895
3096.1536,0.0223647
3097.1179,0.0223613
3098.0820,0.0223765
3099.0464,0.0224018
3100.0105,0.0224227
3100.9749,0.0224228
3101.9390,0.0223918
3102.9033,0.0223332
3103.8674,0.0222673
3104.8318,0.022225
3105.7959,0.0222338
3106.7603,0.022303
3107.7244,0.0224173
3108.6887,0.022543
3109.6528,0.0226475
3110.6172,0.0227174
3111.5813,0.0227656
3112.5457,0.0228207
3113.5098,0.022908
3114.4741,0.0230344
3115.4382,0.0231879
3116.4026,0.0233476
3117.3667,0.0234976
3118.3311,0.0236323
3119.2952,0.0237519
3120.2595,0.0238559
3121.2236,0.023942
3122.1880,0.0240113
3123.1521,0.0240745
3124.1165,0.02415
3125.0806,0.0242528
3126.0449,0.0243826
3127.0090,0.0245209
3127.9734,0.0246408
3128.9375,0.0247244
3129.9019,0.0247758
3130.8660,0.0248209
3131.8303,0.0248936
3132.7944,0.0250165
3133.7588,0.0251883
3134.7229,0.0253848
3135.6873,0.0255736
3136.6514,0.025732
3137.6157,0.0258567
3138.5798,0.0259628
3139.5442,0.0260726
3140.5083,0.0262017
3141.4727,0.0263513
3142.4368,0.0265095
3143.4011,0.0266619
3144.3652,0.0268026
3145.3296,0.0269394
3146.2937,0.0270891
3147.2581,0.0272657
3148.2222,0.0274693
3149.1865,0.0276823
3150.1506,0.0278761
3151.1150,0.0280268
3152.0791,0.0281296
3153.0435,0.0282056
3154.0076,0.0282952
3154.9719,0.0284392
3155.9360,0.028659
3156.9004,0.0289439
3157.8645,0.0292568
3158.8289,0.0295517
3159.7930,0.0297951
3160.7573,0.0299788
3161.7214,0.0301174
3162.6858,0.0302357
3163.6499,0.0303543
3164.6143,0.0304838
3165.5784,0.0306257
3166.5427,0.0307786
3167.5068,0.0309414
3168.4712,0.0311133
3169.4353,0.0312941
3170.3997,0.031485
3171.3638,0.0316901
3172.3281,0.0319135
3173.2922,0.0321535
3174.2566,0.0323974
3175.2207,0.0326242
3176.1851,0.0328153
3177.1492,0.0329669
3178.1135,0.0330932
3179.0776,0.0332174
3180.0420,0.0333562
3181.0061,0.0335115
3181.9705,0.0336771
3182.9346,0.0338517
3183.8989,0.034047
3184.8630,0.03428
3185.8274,0.0345561
3186.7915,0.0348569
3187.7559,0.0351459
3188.7200,0.0353909
3189.6843,0.0355859
3190.6484,0.035757
3191.6128,0.035946
3192.5769,0.0361835
3193.5413,0.0364685
3194.5054,0.0367691
3195.4697,0.0370416
3196.4338,0.0372566
3197.3982,0.0374152
3198.3623,0.037547
3199.3267,0.0376922
3200.2908,0.0378796
3201.2551,0.0381138
3202.2192,0.0383769
3203.1836,0.0386399
3204.1477,0.0388779
3205.1121,0.03908
3206.0762,0.0392521
3207.0405,0.0394107
3208.0046,0.0395738
3208.9690,0.0397529
3209.9331,0.0399484
3210.8975,0.0401524
3211.8616,0.040355
3212.8259,0.0405508
3213.7900,0.0407419
3214.7544,0.0409337
3215.7185,0.041129
3216.6829,0.0413226
3217.6470,0.0415042
3218.6113,0.0416659
3219.5754,0.0418102
3220.5398,0.041951
3221.5039,0.0421047
3222.4683,0.0422784
3223.4324,0.0424643
3224.3967,0.0426459
3225.3608,0.0428106
3226.3252,0.0429615
3227.2893,0.0431179
3228.2537,0.0433064
3229.2178,0.0435471
3230.1821,0.0438427
3231.1462,0.044177
3232.1106,0.0445201
3233.0747,0.0448397
3234.0391,0.0451146
3235.0032,0.0453461
3235.9675,0.0455614
3236.9316,0.0458007
3237.8960,0.0460933
3238.8601,0.046435
3239.8245,0.0467849
3240.7886,0.0470882
3241.7529,0.0473114
3242.7170,0.0474672
3243.6814,0.0476087
3244.6455,0.047796
3245.6099,0.0480564
3246.5740,0.0483687
3247.5383,0.048682
3248.5024,0.0489543
3249.4668,0.04918
3250.4309,0.0493889
3251.3953,0.0496195
3252.3594,0.0498909
3253.3237,0.0501888
3254.2878,0.0504754
3255.2522,0.0507115
3256.2163,0.0508759
3257.1807,0.0509732
3258.1448,0.0510287
3259.1091,0.0510769
3260.0732,0.0511494
3261.0376,0.0512645
3262.0017,0.0514206
3262.9661,0.0515958
3263.9302,0.0517552
3264.8945,0.0518662
3265.8586,0.0519136
3266.8230,0.051907
3267.7871,0.0518774
3268.7515,0.0518635
3269.7156,0.0518973
3270.6799,0.0519934
3271.6440,0.0521467
3272.6084,0.0523367
3273.5725,0.0525348
3274.5369,0.0527131
3275.5010,0.0528512
3276.4653,0.052941
3277.4294,0.0529877
3278.3938,0.0530077
3279.3579,0.0530239
3280.3223,0.053058
3281.2864,0.053123
3282.2507,0.0532185
3283.2148,0.0533325
3284.1792,0.0534501
3285.1433,0.0535647
3286.1077,0.0536847
3287.0718,0.0538315
3288.0361,0.0540278
3289.0002,0.0542855
3289.9646,0.0545983
3290.9287,0.0549439
3291.8931,0.0552918
3292.8572,0.0556114
3293.8215,0.0558749
3294.7856,0.0560576
3295.7500,0.0561418
3296.7141,0.0561277
3297.6785,0.056046
3298.6426,0.055961
3299.6069,0.0559545
3300.5710,0.0560933
3301.5354,0.0563975
3302.4995,0.0568289
3303.4639,0.0573092
3304.4280,0.0577583
3305.3923,0.0581311
3306.3564,0.05843
3307.3208,0.0586878
3308.2849,0.0589341
3309.2493,0.0591701
3310.2134,0.0593694
3311.1777,0.0595045
3312.1418,0.0595755
3313.1062,0.0596206
3314.0703,0.0596988
3315.0347,0.0598575
3315.9988,0.0601086
3316.9631,0.0604245
3317.9272,0.0607582
3318.8916,0.0610692
3319.8557,0.0613422
3320.8201,0.0615879
3321.7842,0.0618315
3322.7485,0.0620971
3323.7126,0.0623963
3324.6770,0.0627241
3325.6411,0.0630599
3326.6055,0.063374
3327.5696,0.0636378
3328.5339,0.0638372
3329.4980,0.0639832
3330.4624,0.0641136
3331.4265,0.0642821
3332.3909,0.064538
3333.3550,0.0649047
3334.3193,0.0653688
3335.2834,0.0658851
3336.2478,0.0663965
3337.2119,0.0668593
3338.1763,0.0672587
3339.1404,0.0676051
3340.1047,0.0679173
3341.0688,0.0682049
3342.0332,0.0684642
3342.9973,0.0686904
3343.9617,0.0688946
3344.9258,0.0691126
3345.8901,0.069393
3346.8542,0.0697724
3347.8186,0.0702506
3348.7827,0.0707859
3349.7471,0.0713122
3350.7112,0.0717706
3351.6755,0.0721365
3352.6396,0.0724276
3353.6040,0.0726887
3354.5681,0.0729669
3355.5325,0.0732891
3356.4966,0.0736545
3357.4609,0.0740417
3358.4250,0.0744234
3359.3894,0.0747786
3360.3535,0.0750983
3361.3179,0.075385
3362.2820,0.0756504
3363.2463,0.0759131
3364.2104,0.0761984
3365.1748,0.0765332
3366.1389,0.0769366
3367.1033,0.0774059
3368.0674,0.0779082
3369.0317,0.0783873
3369.9958,0.0787857
3370.9602,0.0790725
3371.9243,0.0792587
3372.8887,0.0793889
3373.8528,0.0795172
3374.8171,0.0796801
3375.7813,0.0798865
3376.7456,0.0801261
3377.7097,0.0803868
3378.6741,0.0806626
3379.6382,0.0809468
3380.6025,0.0812184
3381.5667,0.081439
3382.5310,0.081569
3383.4951,0.0815961
3384.4595,0.0815563
3385.4236,0.0815306
3386.3879,0.0816131
3387.3521,0.0818691
3388.3164,0.0823068
3389.2805,0.0828737
3390.2449,0.0834731
3391.2090,0.0839941
3392.1733,0.0843469
3393.1375,0.084495
3394.1018,0.0844693
3395.0659,0.0843548
3396.0303,0.0842544
3396.9944,0.0842488
3397.9587,0.084368
3398.9229,0.0845858
3399.8872,0.0848385
3400.8513,0.0850596
3401.8157,0.0852132
3402.7798,0.0853093
3403.7441,0.085391
3404.7083,0.0855021
3405.6726,0.085654
3406.6367,0.0858168
3407.6011,0.0859401
3408.5652,0.0859921
3409.5295,0.085988
3410.4937,0.0859847
3411.4580,0.0860428
3412.4221,0.0861805
3413.3865,0.0863552
3414.3506,0.0864882
3415.3149,0.0865177
3416.2791,0.0864402
3417.2434,0.0863104
3418.2075,0.0862023
3419.1719,0.0861584
3420.1360,0.0861626
3421.1003,0.0861558
3422.0645,0.0860857
3423.0288,0.0859535
3423.9929,0.0858187
3424.9573,0.0857606
3425.9214,0.0858266
3426.8857,0.0859983
3427.8499,0.0861955
3428.8142,0.0863169
3429.7783,0.0862952
3430.7427,0.0861334
3431.7068,0.0858974
3432.6711,0.0856722
3433.6353,0.0855104
3434.5996,0.0854076
3435.5637,0.0853157
3436.5281,0.0851795
3437.4922,0.0849703
3438.4565,0.0846956
3439.4207,0.0843856
3440.3850,0.0840739
3441.3491,0.0837866
3442.3135,0.0835447
3443.2776,0.0833674
3444.2419,0.0832658
3445.2061,0.0832278
3446.1704,0.0832068
3447.1345,0.0831331
3448.0989,0.0829492
3449.0630,0.0826444
3450.0273,0.0822574
3450.9915,0.081846
3451.9558,0.0814533
3452.9199,0.0810935
3453.8843,0.0807631
3454.8484,0.0804622
3455.8127,0.0802081
3456.7769,0.0800261
3457.7412,0.0799233
3458.7053,0.0798674
3459.6697,0.0797881
3460.6338,0.0796065
3461.5981,0.0792788
3462.5623,0.0788261
3463.5266,0.0783277
3464.4907,0.0778816
3465.4551,0.0775574
3466.4192,0.0773668
3467.3835,0.077262
3468.3477,0.0771586
3469.3120,0.0769717
3470.2761,0.0766486
3471.2405,0.0761859
3472.2046,0.0756269
3473.1689,0.0750466
3474.1331,0.0745262
3475.0974,0.0741242
3476.0615,0.0738527
3477.0259,0.0736721
3477.9900,0.0735073
3478.9543,0.0732783
3479.9185,0.072933
3480.8828,0.0724742
3481.8469,0.0719635
3482.8113,0.0714914
3483.7754,0.0711289
3484.7397,0.0708931
3485.7039,0.0707461
3486.6682,0.0706169
3487.6323,0.0704294
3488.5967,0.0701302
3489.5608,0.0697069
3490.5251,0.0691912
3491.4893,0.0686426
3492.4536,0.0681263
3493.4177,0.0676912
3494.3821,0.0673535
3495.3462,0.0670907
3496.3105,0.0668534
3497.2747,0.0665943
3498.2390,0.0662936
3499.2031,0.0659609
3500.1675,0.0656144
3501.1316,0.0652572
3502.0959,0.0648696
3503.0601,0.0644263
3504.0244,0.063926
3504.9885,0.0634027
3505.9529,0.0629049
3506.9170,0.0624665
3507.8813,0.0620941
3508.8455,0.0617725
3509.8098,0.0614804
3510.7739,0.0612046
3511.7383,0.0609405
3512.7024,0.0606803
3513.6667,0.060402
3514.6309,0.0600703
3515.5952,0.0596521
3516.5593,0.0591386
3517.5237,0.058559
3518.4878,0.0579749
3519.4521,0.057458
3520.4163,0.0570636
3521.3806,0.0568093
3522.3447,0.056663
3523.3091,0.0565463
3524.2732,0.0563617
3525.2375,0.0560352
3526.2017,0.0555493
3527.1660,0.054947
3528.1301,0.0543067
3529.0945,0.0537046
3530.0586,0.0531837
3531.0229,0.0527482
3531.9871,0.0523805
3532.9514,0.0520606
3533.9155,0.0517736
3534.8799,0.0515034
3535.8440,0.0512269
3536.8083,0.0509195
3537.7725,0.0505725
3538.7368,0.0502061
3539.7009,0.0498621
3540.6653,0.0495809
3541.6294,0.0493775
3542.5938,0.0492264
3543.5579,0.0490584
3544.5222,0.0487801
3545.4863,0.0483236
3546.4507,0.0477003
3547.4148,0.0470013
3548.3792,0.0463367
3549.3433,0.0457785
3550.3076,0.045343
3551.2717,0.0450001
3552.2361,0.0446896
3553.2002,0.0443472
3554.1646,0.0439358
3555.1287,0.0434602
3556.0930,0.0429572
3557.0571,0.0424765
3558.0215,0.0420685
3558.9856,0.0417756
3559.9500,0.0416156
3560.9141,0.0415644
3561.8784,0.0415557
3562.8425,0.0414999
3563.8069,0.0413054
3564.7710,0.0409006
3565.7354,0.0402722
3566.6995,0.0395172
3567.6638,0.038817
3568.6279,0.0382902
3569.5923,0.0379096
3570.5564,0.037578
3571.5208,0.0372189
3572.4849,0.0368021
3573.4492,0.0363372
3574.4133,0.0358591
3575.3777,0.0354109
3576.3418,0.0350234
3577.3062,0.0347018
3578.2703,0.0344268
3579.2346,0.0341683
3580.1987,0.0339052
3581.1631,0.03364
3582.1272,0.0333966
3583.0916,0.0331974
3584.0557,0.0330318
3585.0200,0.032825
3585.9841,0.0324372
3586.9485,0.0317475
3587.9126,0.0308157
3588.8770,0.029896
3589.8411,0.0292191
3590.8054,0.0288426
3591.7695,0.0286922
3592.7339,0.0286408
3593.6980,0.0285623
3594.6624,0.0283833
3595.6265,0.0281232
3596.5908,0.0278676
3597.5549,0.0276796
3598.5193,0.0275362
3599.4834,0.0273412
3600.4478,0.0269986
3601.4119,0.0264944
3602.3762,0.0259107
3603.3403,0.0253539
3604.3047,0.0248763
3605.2688,0.0244504
3606.2332,0.0239926
3607.1973,0.023423
3608.1616,0.0227418
3609.1257,0.0220533
3610.0901,0.0214916
3611.0542,0.0211213
3612.0186,0.020909
3612.9827,0.0207657
3613.9470,0.0206074
3614.9111,0.0203949
3615.8755,0.0201303
3616.8396,0.0198217
3617.8040,0.0194547
3618.7681,0.0190022
3619.7324,0.0184763
3620.6965,0.01796
3621.6609,0.0175548
3622.6250,0.0173076
3623.5894,0.0171981
3624.5535,0.0171634
3625.5178,0.0171117
3626.4819,0.0169248
3627.4463,0.0164887
3628.4104,0.0158096
3629.3748,0.015108
3630.3389,0.0146264
3631.3032,0.0143837
3632.2673,0.0142538
3633.2317,0.01413
3634.1958,0.0139751
3635.1602,0.0138029
3636.1243,0.0136383
3637.0886,0.0134794
3638.0527,0.0132905
3639.0171,0.0130306
3639.9812,0.0126959
3640.9456,0.01234
3641.9097,0.0120517
3642.8740,0.0119031
3643.8381,0.0119113
3644.8025,0.0120383
3645.7666,0.01221
3646.7310,0.0123294
3647.6951,0.0122817
3648.6594,0.0119958
3649.6235,0.0115668
3650.5879,0.0111817
3651.5520,0.0108906
3652.5164,0.0106267
3653.4805,0.0103244
3654.4448,0.00996473
3655.4089,0.00958973
3656.3733,0.00929516
3657.3374,0.00916994
3658.3018,0.00921282
3659.2659,0.00932717
3660.2302,0.00939499
3661.1943,0.00934386
3662.1587,0.00917455
3663.1228,0.00895326
3664.0872,0.00876799
3665.0513,0.00867023
3666.0156,0.00864425
3666.9797,0.00861445
3667.9441,0.0084807
3668.9082,0.0081909
3669.8726,0.00782755
3670.8367,0.00757024
3671.8010,0.00751862
3672.7651,0.00761375
3673.7295,0.00770101
3674.6936,0.00761033
3675.6580,0.00726719
3676.6221,0.00680603
3677.5864,0.00645871
3678.5505,0.00631834
3679.5149,0.00632779
3680.4790,0.0063975
3681.4434,0.00646961
3682.4075,0.0065285
3683.3718,0.00658951
3684.3359,0.00667779
3685.3003,0.00680546
3686.2644,0.00695195
3687.2288,0.00704662
3688.1929,0.00697122
3689.1572,0.00664159
3690.1213,0.00614913
3691.0857,0.00572267
3692.0498,0.0055063
3693.0142,0.00548894
3693.9783,0.00558594
3694.9426,0.00570575
3695.9067,0.00577707
3696.8711,0.00576154
3697.8352,0.00565806
3698.7996,0.00549509
3699.7637,0.00531548
3700.7280,0.00516176
3701.6921,0.00506633
3702.6565,0.0050473
3703.6206,0.00511114
3704.5850,0.00525905
3705.5491,0.00548874
3706.5134,0.00578746
3707.4775,0.00611663
3708.4419,0.00639023
3709.4060,0.00646557
3710.3704,0.00620753
3711.3345,0.00565596
3712.2988,0.00507425
3713.2629,0.00470075
3714.2273,0.00456913
3715.1914,0.00459159
3716.1558,0.00467554
3717.1199,0.00476583
3718.0842,0.00484561
3719.0483,0.00492421
3720.0127,0.0050164
3720.9768,0.00511721
3721.9412,0.00518967
3722.9053,0.00518072
3723.8696,0.00506196
3724.8337,0.00486927
3725.7981,0.00470455
3726.7622,0.00468275
3727.7266,0.00486846
3728.6907,0.00525751
3729.6550,0.00579635
3730.6191,0.00639775
3731.5835,0.00693614
3732.5476,0.00723916
3733.5120,0.00712659
3734.4761,0.0065603
3735.4404,0.00580769
3736.4045,0.00528243
3737.3689,0.005164
3738.3330,0.00535159
3739.2974,0.00567339
3740.2615,0.00600156
3741.2258,0.00624953
3742.1899,0.00634319
3743.1543,0.00622557
3744.1184,0.00592456
3745.0828,0.00560437
3746.0469,0.00544463
3747.0112,0.00547685
3747.9753,0.00559478
3748.9397,0.00563212
3749.9038,0.00542392
3750.8682,0.00494222
3751.8323,0.0044217
3752.7966,0.00415138
3753.7607,0.00419668
3754.7251,0.00445808
3755.6892,0.00480911
3756.6536,0.00512892
3757.6177,0.00529844
3758.5820,0.00523756
3759.5461,0.00497583
3760.5105,0.00465311
3761.4746,0.00441788
3762.4390,0.00434369
3763.4031,0.00442583
3764.3674,0.00461045
3765.3315,0.00481963
3766.2959,0.0049736
3767.2600,0.00501404
3768.2244,0.00491936
3769.1885,0.00470627
3770.1528,0.00442405
3771.1169,0.00414306
3772.0813,0.003932
3773.0454,0.00383338
3774.0098,0.0038555
3774.9739,0.00397984
3775.9382,0.00416953
3776.9023,0.00437291
3777.8667,0.00453109
3778.8308,0.00460079
3779.7952,0.00458104
3780.7593,0.00450882
3781.7236,0.00442401
3782.6877,0.00434718
3783.6521,0.00428518
3784.6162,0.00424397
3785.5806,0.0042303
3786.5447,0.00424315
3787.5090,0.00426906
3788.4731,0.0042915
3789.4375,0.00430599
3790.4016,0.00432498
3791.3660,0.00436725
3792.3301,0.0044402
3793.2944,0.00452903
3794.2585,0.00460206
3795.2229,0.00463288
3796.1870,0.00462343
3797.1514,0.00460381
3798.1155,0.00460283
3799.0798,0.00461668
3800.0439,0.00460758
3801.0083,0.00454487
3801.9724,0.00445727
3802.9368,0.00441696
3803.9009,0.00445574
3804.8652,0.00451942
3805.8293,0.00449676
3806.7937,0.00429589
3807.7578,0.00394104
3808.7222,0.00359137
3809.6863,0.00341706
3810.6506,0.00348082
3811.6147,0.0037421
3812.5791,0.00410703
3813.5432,0.00445224
3814.5076,0.00464168
3815.4717,0.00458484
3816.4360,0.00431055
3817.4001,0.0039464
3818.3645,0.00361456
3819.3286,0.00338502
3820.2930,0.00330609
3821.2571,0.00341732
3822.2214,0.00370448
3823.1855,0.00407775
3824.1499,0.00442382
3825.1140,0.00465923
3826.0784,0.00474651
3827.0425,0.00469716
3828.0068,0.00456857
3828.9709,0.00444071
3829.9353,0.00437585
3830.8994,0.00439026
3831.8638,0.00446055
3832.8279,0.00455434
3833.7922,0.00465717
3834.7563,0.00477302
3835.7207,0.00489807
3836.6848,0.00498946
3837.6492,0.00496732
3838.6133,0.00477884
3839.5776,0.00447326
3840.5417,0.00417624
3841.5061,0.00398467
3842.4702,0.0039125
3843.4346,0.00391661
3844.3987,0.00394982
3845.3630,0.00399935
3846.3271,0.00409147
3847.2915,0.00426743
3848.2556,0.00455515
3849.2200,0.00495072
3850.1841,0.00540058
3851.1484,0.00576582
3852.1125,0.00579428
3853.0769,0.00527592
3854.0410,0.00444214
3855.0054,0.0038252
3855.9697,0.00361102
3856.9338,0.00366153
3857.8982,0.00381917
3858.8623,0.00399817
3859.8267,0.00416738
3860.7908,0.00432467
3861.7551,0.00447857
3862.7192,0.00463185
3863.6836,0.00476777
3864.6477,0.00485261
3865.6121,0.00485646
3866.5762,0.0047712
3867.5405,0.00461599
3868.5046,0.00443719
3869.4690,0.00429862
3870.4331,0.00424796
3871.3975,0.00427567
3872.3616,0.00432141
3873.3259,0.00433689
3874.2900,0.00432985
3875.2544,0.0043446
3876.2185,0.00441661
3877.1829,0.00454418
3878.1470,0.00468676
3879.1113,0.00478571
3880.0754,0.00480207
3881.0398,0.00474802
3882.0039,0.00467292
3882.9683,0.00460977
3883.9324,0.00454489
3884.8967,0.00444589
3885.8608,0.00431436
3886.8252,0.00420064
3887.7893,0.00415982
3888.7537,0.00420123
3889.7178,0.00427763
3890.6821,0.00431353
3891.6462,0.00426341
3892.6106,0.00416738
3893.5747,0.00412651
3894.5391,0.00420926
3895.5032,0.00440402
3896.4675,0.00463968
3897.4316,0.00481757
3898.3960,0.00484166
3899.3601,0.00466145
3900.3245,0.00431023
3901.2886,0.00388956
3902.2529,0.00350643
3903.2170,0.00323392
3904.1814,0.00311543
3905.1455,0.00316607
3906.1099,0.00335925
3907.0740,0.00362863
3908.0383,0.00389204
3909.0024,0.00407991
3909.9668,0.00416027
3910.9309,0.00415498
3911.8953,0.00413183
3912.8594,0.0041644
3913.8237,0.00428069
3914.7878,0.0044353
3915.7522,0.00452797
3916.7163,0.00446975
3917.6807,0.00426513
3918.6448,0.00403113
3919.6091,0.00391115
3920.5732,0.00396877
3921.5376,0.00415921
3922.5017,0.00436841
3923.4661,0.00447371
3924.4302,0.00440655
3925.3945,0.00419069
3926.3586,0.00391851
3927.3230,0.00368304
3928.2871,0.00353178
3929.2515,0.00346643
3930.2156,0.0034635
3931.1799,0.00349369
3932.1440,0.00353646
3933.1084,0.00358894
3934.0725,0.00366463
3935.0369,0.00378216
3936.0010,0.00395154
3936.9653,0.00416343
3937.9294,0.00438391
3938.8938,0.00455732
3939.8579,0.00462109
3940.8223,0.00453373
3941.7864,0.00430729
3942.7507,0.00401965
3943.7148,0.00378211
3944.6792,0.0036792
3945.6433,0.00373064
3946.6077,0.00389701
3947.5718,0.00410781
3948.5361,0.00429038
3949.5002,0.00439435
3950.4646,0.00440546
3951.4287,0.00433996
3952.3931,0.00422485
3953.3572,0.00408288
3954.3215,0.00393019
3955.2856,0.00377864
3956.2500,0.00363405
3957.2141,0.00349129
3958.1785,0.00333484
3959.1426,0.00315193
3960.1069,0.00295328
3961.0710,0.00278561
3962.0354,0.00271914
3962.9995,0.0028092
3963.9639,0.00305593
3964.9280,0.00339364
3965.8923,0.00371943
3966.8564,0.00394383
3967.8208,0.00403605
3968.7849,0.00403824
3969.7493,0.00403599
3970.7134,0.00409829
3971.6777,0.00422771
3972.6418,0.00435762
3973.6062,0.00439969
3974.5703,0.00430757
3975.5347,0.00410946
3976.4988,0.00388552
3977.4631,0.00370978
3978.4272,0.00360593
3979.3916,0.00354959
3980.3557,0.00350788
3981.3201,0.00347908
3982.2842,0.00349787
3983.2485,0.00360241
3984.2126,0.0037917
3985.1770,0.00401122
3986.1411,0.00417895
3987.1055,0.0042293
3988.0696,0.00414284
3989.0339,0.00394611
3989.9980,0.00369055
3990.9624,0.00343148
3991.9265,0.00322097
3992.8909,0.00310874
3993.8550,0.00313499
3994.8193,0.00330948
3995.7834,0.00359139
3996.7478,0.00389362
3997.7119,0.00411906
3998.6763,0.00420849
3999.6404,0.00416691
4000.6047,0.00412299

##### Extended Information
[Rg]
,p(TT-TII-PD)_KBr
Rg
,Nozaki
,matsulab
,Hw

[f[^]
,2024/01/19 15:36

f[^^Cv,uf[^
,Wavenumber [cm-1]
c,Abs
X^[g,399.193 cm-1
Gh,4000.6 cm-1
f[^u,0.964233 cm-1
f[^,3736    

[]
@,FT/IR-6300typeA
VA,A005961024

,2024/01/19 14:33

,W
o,TGS
Z,256
,4 cm-1
[tBO,On
A|_C[[V,Cosine
QC,Auto (16)
Ap[`[,Auto (7.1 mm)
XLXs[h,Auto (2 mm/sec)
tB^,Auto (10000 Hz)

