TITLE,PTSA_KBr
DATA TYPE,INFRARED SPECTRUM
ORIGIN,JASCO
OWNER,matsulab
DATE,24/01/19
TIME,16:43:55
SPECTROMETER/DATA SYSTEM,
LOCALE,1041
RESOLUTION,
DELTAX,0.964233
XUNITS,1/CM
YUNITS,ABSORBANCE
FIRSTX,  399.1927
LASTX, 4000.6047
NPOINTS,    3736
FIRSTY,     0.05140
MAXY,     0.05159
MINY,     0.00100
XYDATA
399.1927,0.0513991
400.1569,0.0408595
401.1211,0.0256068
402.0854,0.0124346
403.0496,0.00416561
404.0138,0.001
404.9781,0.00192512
405.9423,0.00548667
406.9065,0.0101668
407.8708,0.014613
408.8350,0.0178182
409.7992,0.0192803
410.7635,0.0191296
411.7277,0.0181116
412.6919,0.0172969
413.6562,0.0176398
414.6204,0.0196897
415.5846,0.0235228
416.5489,0.0286148
417.5131,0.0334459
418.4773,0.035521
419.4416,0.033285
420.4058,0.0281861
421.3700,0.0230058
422.3343,0.0193115
423.2985,0.0173143
424.2627,0.0166364
425.2270,0.0167558
426.1912,0.0171756
427.1554,0.0175129
428.1197,0.0175393
429.0839,0.0171811
430.0481,0.0165236
431.0124,0.0158194
431.9766,0.0154405
432.9408,0.0157235
433.9051,0.0167631
434.8693,0.0183015
435.8335,0.0198475
436.7978,0.0209987
437.7620,0.0217131
438.7262,0.0222909
439.6905,0.0230953
440.6547,0.0242337
441.6189,0.0253976
442.5832,0.02598
443.5474,0.0254579
444.5116,0.023781
445.4759,0.0214107
446.4401,0.0189858
447.4043,0.0169598
448.3686,0.0154823
449.3328,0.0145014
450.2970,0.0139177
451.2613,0.0136572
452.2255,0.0136377
453.1897,0.0137137
454.1540,0.0137029
455.1182,0.0135159
456.0824,0.0133113
457.0467,0.013528
458.0109,0.0146268
458.9751,0.0166248
459.9394,0.018929
460.9036,0.0207329
461.8678,0.0215223
462.8321,0.0212619
463.7963,0.0203116
464.7605,0.0192226
465.7248,0.0184803
466.6890,0.018301
467.6532,0.0186214
468.6175,0.0192688
469.5817,0.0201244
470.5459,0.0211292
471.5102,0.0221516
472.4744,0.0228857
473.4386,0.0229712
474.4029,0.0222697
475.3671,0.0209883
476.3313,0.0195258
477.2956,0.0182263
478.2598,0.0172319
479.2240,0.0164905
480.1883,0.0158871
481.1525,0.0154047
482.1167,0.0151948
483.0810,0.0154826
484.0452,0.0163545
485.0094,0.017592
485.9737,0.0187243
486.9379,0.0192757
487.9021,0.0189987
488.8664,0.0179501
489.8306,0.0164437
490.7948,0.0149542
491.7591,0.013982
492.7233,0.0138827
493.6875,0.014723
494.6518,0.0162572
495.6160,0.0180439
496.5802,0.0196332
497.5445,0.0207204
498.5087,0.0212136
499.4729,0.021216
500.4372,0.0209522
501.4014,0.0206604
502.3656,0.0204794
503.3299,0.020384
504.2941,0.0202145
505.2583,0.019776
506.2226,0.018933
507.1868,0.0176632
508.1510,0.0160739
509.1153,0.0143813
510.0795,0.0128491
511.0437,0.0117046
512.0080,0.0110753
512.9722,0.0109749
513.9365,0.0113302
514.9007,0.0120229
515.8649,0.012922
516.8292,0.0138972
517.7934,0.0148218
518.7576,0.0155862
519.7219,0.0161296
520.6861,0.0164661
521.6503,0.0166761
522.6146,0.0168625
523.5788,0.0170866
524.5430,0.0173006
525.5073,0.0173238
526.4715,0.0169262
527.4357,0.0160043
528.4000,0.0147017
529.3642,0.0133571
530.3284,0.0123281
531.2927,0.0118191
532.2569,0.0117924
533.2211,0.0120025
534.1854,0.0121463
535.1496,0.0120489
536.1138,0.0117547
537.0781,0.0114637
538.0423,0.0113721
539.0065,0.0115496
539.9708,0.0119324
540.9350,0.0124112
541.8992,0.0129223
542.8635,0.013469
543.8277,0.0140718
544.7919,0.0147061
545.7562,0.0152913
546.7204,0.0157476
547.6846,0.0160723
548.6489,0.0163666
549.6131,0.0167823
550.5773,0.0174296
551.5416,0.018312
552.5058,0.0193288
553.4700,0.020331
554.4343,0.0211835
555.3985,0.0217961
556.3627,0.0221194
557.3270,0.0221338
558.2912,0.0218597
559.2554,0.0213921
560.2197,0.0209299
561.1839,0.0207552
562.1481,0.0211466
563.1124,0.0222578
564.0766,0.0240278
565.0408,0.0261803
566.0051,0.0283141
566.9693,0.0300411
567.9335,0.0311124
568.8978,0.0314802
569.8620,0.0312667
570.8262,0.0306641
571.7905,0.0298389
572.7547,0.0288973
573.7189,0.0279073
574.6832,0.0269302
575.6474,0.0260241
576.6116,0.0252209
577.5759,0.0245058
578.5401,0.0238274
579.5043,0.0231316
580.4686,0.0223871
581.4328,0.0215863
582.3970,0.0207285
583.3613,0.0198092
584.3255,0.0188285
585.2897,0.0178124
586.2540,0.0168212
587.2182,0.0159357
588.1824,0.0152311
589.1467,0.0147537
590.1109,0.0145097
591.0751,0.0144604
592.0394,0.0145194
593.0036,0.0145656
593.9678,0.0144804
594.9321,0.0142007
595.8963,0.0137582
596.8605,0.0132792
597.8248,0.0129341
598.7890,0.0128509
599.7532,0.0130313
600.7175,0.0133322
601.6817,0.0135435
602.6459,0.0135166
603.6102,0.013257
604.5744,0.0129165
605.5386,0.0126943
606.5029,0.0127086
607.4671,0.0129199
608.4313,0.0131533
609.3956,0.0132028
610.3598,0.0129537
611.3240,0.0124425
612.2883,0.0118237
613.2525,0.0112746
614.2167,0.010907
615.1810,0.010732
616.1452,0.0106797
617.1094,0.0106509
618.0737,0.0105723
619.0379,0.0104273
620.0021,0.0102521
620.9664,0.0101103
621.9306,0.0100671
622.8948,0.010166
623.8591,0.0104079
624.8233,0.0107395
625.7875,0.0110718
626.7518,0.0113322
627.7160,0.0115171
628.6802,0.0117009
629.6445,0.0119915
630.6087,0.012457
631.5729,0.0130734
632.5372,0.0137224
633.5014,0.0142436
634.4656,0.0145089
635.4299,0.0144756
636.3941,0.0141888
637.3583,0.0137438
638.3226,0.0132386
639.2868,0.0127481
640.2510,0.0123229
641.2153,0.0119969
642.1795,0.0117928
643.1437,0.0117201
644.1080,0.0117711
645.0722,0.0119212
646.0364,0.0121314
647.0007,0.0123536
647.9649,0.012541
648.9291,0.0126645
649.8934,0.0127303
650.8576,0.0127821
651.8218,0.0128823
652.7861,0.0130795
653.7503,0.013383
654.7145,0.0137569
655.6788,0.0141361
656.6430,0.0144569
657.6072,0.0146792
658.5715,0.014788
659.5357,0.0147778
660.4999,0.0146471
661.4642,0.0144104
662.4284,0.0141126
663.3926,0.013827
664.3569,0.0136479
665.3211,0.013698
666.2853,0.0141409
667.2496,0.0151108
668.2138,0.0164195
669.1780,0.0173752
670.1423,0.0175188
671.1065,0.0171608
672.0707,0.016798
673.0350,0.0167245
673.9992,0.0170621
674.9634,0.0178145
675.9277,0.0188744
676.8919,0.0200644
677.8561,0.0212428
678.8204,0.0223908
679.7846,0.0235964
680.7488,0.0249652
681.7131,0.0265367
682.6773,0.028255
683.6415,0.0299984
684.6058,0.0316325
685.5700,0.0330511
686.5342,0.0341894
687.4985,0.0350196
688.4627,0.0355351
689.4269,0.0357312
690.3912,0.0355895
691.3554,0.0350778
692.3196,0.0341631
693.2839,0.0328285
694.2481,0.0310909
695.2123,0.0290177
696.1766,0.0267394
697.1408,0.0244428
698.1050,0.0223352
699.0693,0.0205861
700.0335,0.0192799
700.9977,0.0184027
701.9620,0.0178675
702.9262,0.0175574
703.8904,0.0173649
704.8547,0.0172138
705.8189,0.0170655
706.7831,0.0169113
707.7474,0.0167559
708.7116,0.0165923
709.6758,0.0163816
710.6401,0.0160635
711.6043,0.0156067
712.5685,0.0150787
713.5328,0.0146699
714.4970,0.0146191
715.4612,0.0150571
716.4255,0.0158646
717.3897,0.0166522
718.3539,0.0169116
719.3182,0.0162991
720.2824,0.0148909
721.2466,0.0131916
722.2109,0.0118347
723.1751,0.0112043
724.1393,0.0112673
725.1036,0.0116856
726.0678,0.0120707
727.0320,0.0122067
727.9963,0.0121196
728.9605,0.0119815
729.9247,0.011946
730.8890,0.0120483
731.8532,0.012228
732.8174,0.0124187
733.7817,0.0126111
734.7459,0.0128404
735.7101,0.0131265
736.6744,0.0134341
737.6386,0.0136893
738.6028,0.0138318
739.5671,0.0138537
740.5313,0.0137916
741.4955,0.0136861
742.4598,0.0135491
743.4240,0.0133668
744.3882,0.0131296
745.3525,0.0128562
746.3167,0.0125885
747.2809,0.0123625
748.2452,0.0121839
749.2094,0.0120278
750.1736,0.0118634
751.1379,0.0116816
752.1021,0.0115053
753.0663,0.0113793
754.0306,0.0113483
754.9948,0.0114384
755.9590,0.0116478
756.9233,0.0119477
757.8875,0.01229
758.8517,0.0126209
759.8160,0.012898
760.7802,0.0131029
761.7444,0.0132426
762.7087,0.0133359
763.6729,0.0133942
764.6371,0.0134121
765.6014,0.0133756
766.5656,0.0132805
767.5298,0.0131468
768.4941,0.0130125
769.4583,0.0129126
770.4225,0.0128576
771.3868,0.0128292
772.3510,0.012794
773.3152,0.0127235
774.2795,0.0126055
775.2437,0.0124417
776.2079,0.0122422
777.1722,0.0120261
778.1364,0.0118295
779.1006,0.0117062
780.0649,0.011712
781.0291,0.0118747
781.9933,0.0121706
782.9576,0.0125285
783.9218,0.0128645
784.8860,0.0131275
785.8503,0.0133233
786.8145,0.0134993
787.7787,0.0137007
788.7430,0.0139292
789.7072,0.0141367
790.6714,0.014257
791.6357,0.0142533
792.5999,0.014147
793.5641,0.0140076
794.5284,0.0139111
795.4926,0.0138959
796.4568,0.0139455
797.4211,0.0140062
798.3853,0.0140256
799.3495,0.0139861
800.3138,0.013914
801.2780,0.0138628
802.2422,0.013887
803.2065,0.014021
804.1707,0.0142752
805.1349,0.0146472
806.0992,0.0151401
807.0634,0.0157782
808.0276,0.0166093
808.9919,0.0176894
809.9561,0.0190532
810.9203,0.0206786
811.8846,0.0224631
812.8488,0.0242266
813.8130,0.025744
814.7773,0.0267998
815.7415,0.0272419
816.7057,0.0270166
817.6700,0.0261748
818.6342,0.0248551
819.5984,0.0232508
820.5627,0.021571
821.5269,0.0199988
822.4911,0.0186553
823.4554,0.0175792
824.4196,0.0167357
825.3839,0.0160529
826.3481,0.0154704
827.3123,0.0149742
828.2766,0.014597
829.2408,0.0143851
830.2050,0.0143542
831.1693,0.0144643
832.1335,0.0146284
833.0977,0.0147508
834.0620,0.01477
835.0262,0.0146806
835.9904,0.0145261
836.9547,0.0143696
837.9189,0.0142637
838.8831,0.0142345
839.8474,0.0142821
840.8116,0.0143908
841.7758,0.0145363
842.7401,0.0146898
843.7043,0.014822
844.6685,0.0149117
845.6328,0.0149565
846.5970,0.0149762
847.5612,0.0150006
848.5255,0.0150454
849.4897,0.0150924
850.4539,0.0150913
851.4182,0.0149876
852.3824,0.0147608
853.3466,0.0144474
854.3109,0.0141305
855.2751,0.0138986
856.2393,0.0137997
857.2036,0.0138165
858.1678,0.0138798
859.1320,0.0139089
860.0963,0.0138553
861.0605,0.0137262
862.0247,0.0135761
862.9890,0.0134756
863.9532,0.0134739
864.9174,0.0135759
865.8817,0.013742
866.8459,0.0139114
867.8101,0.0140329
868.7744,0.0140898
869.7386,0.0141047
870.7028,0.0141225
871.6671,0.0141821
872.6313,0.0142936
873.5955,0.0144327
874.5598,0.0145545
875.5240,0.0146156
876.4882,0.0145916
877.4525,0.0144814
878.4167,0.0143003
879.3809,0.0140701
880.3452,0.013814
881.3094,0.0135568
882.2736,0.0133252
883.2379,0.0131438
884.2021,0.0130264
885.1663,0.0129701
886.1306,0.0129569
887.0948,0.0129662
888.0590,0.0129902
889.0233,0.0130418
889.9875,0.0131469
890.9517,0.0133249
891.9160,0.0135679
892.8802,0.0138343
893.8444,0.0140619
894.8087,0.014195
895.7729,0.0142097
896.7371,0.0141245
897.7014,0.0139897
898.6656,0.013864
899.6298,0.0137907
900.5941,0.0137836
901.5583,0.0138264
902.5225,0.0138817
903.4868,0.0139041
904.4510,0.0138535
905.4152,0.0137073
906.3795,0.0134688
907.3437,0.0131686
908.3079,0.0128569
909.2722,0.0125872
910.2364,0.0124
911.2006,0.0123117
912.1649,0.0123151
913.1291,0.0123887
914.0933,0.0125074
915.0576,0.0126491
916.0218,0.0127947
916.9860,0.0129259
917.9503,0.0130252
918.9145,0.0130803
919.8787,0.0130902
920.8430,0.0130673
921.8072,0.0130312
922.7714,0.0129985
923.7357,0.0129715
924.6999,0.012937
925.6641,0.0128727
926.6284,0.0127614
927.5926,0.0126015
928.5568,0.0124105
929.5211,0.0122177
930.4853,0.0120526
931.4495,0.0119338
932.4138,0.0118637
933.3780,0.0118279
934.3422,0.0118007
935.3065,0.0117526
936.2707,0.011662
937.2349,0.0115264
938.1992,0.0113698
939.1634,0.0112379
940.1276,0.0111816
941.0919,0.011233
942.0561,0.0113874
943.0203,0.0116032
943.9846,0.0118186
944.9488,0.0119789
945.9130,0.0120563
946.8773,0.0120536
947.8415,0.0119929
948.8057,0.0119008
949.7700,0.0117986
950.7342,0.0117011
951.6984,0.0116187
952.6627,0.0115573
953.6269,0.0115141
954.5911,0.011477
955.5554,0.0114297
956.5196,0.0113629
957.4838,0.011283
958.4481,0.0112093
959.4123,0.0111637
960.3765,0.0111583
961.3408,0.0111923
962.3050,0.0112595
963.2692,0.011357
964.2335,0.0114878
965.1977,0.0116526
966.1619,0.0118394
967.1262,0.012022
968.0904,0.0121722
969.0546,0.0122767
970.0189,0.0123474
970.9831,0.0124153
971.9473,0.0125119
972.9116,0.0126512
973.8758,0.0128234
974.8400,0.0130047
975.8043,0.0131735
976.7685,0.0133219
977.7327,0.0134566
978.6970,0.0135896
979.6612,0.0137277
980.6254,0.0138678
981.5897,0.014
982.5539,0.0141161
983.5181,0.0142186
984.4824,0.0143233
985.4466,0.0144545
986.4108,0.0146341
987.3751,0.0148706
988.3393,0.0151544
989.3035,0.0154631
990.2678,0.015774
991.2320,0.016076
992.1962,0.0163732
993.1605,0.01668
994.1247,0.017011
995.0889,0.017373
996.0532,0.0177649
997.0174,0.0181827
997.9816,0.0186251
998.9459,0.0190974
999.9101,0.0196115
1000.8743,0.0201834
1001.8386,0.0208307
1002.8028,0.0215689
1003.7670,0.0224094
1004.7313,0.0233607
1005.6955,0.0244337
1006.6597,0.0256452
1007.6240,0.0270074
1008.5882,0.0284958
1009.5524,0.0300048
1010.5167,0.0313173
1011.4809,0.0321244
1012.4451,0.0321094
1013.4094,0.0310743
1014.3736,0.0290456
1015.3378,0.0262995
1016.3021,0.0232822
1017.2663,0.0204623
1018.2305,0.0181893
1019.1948,0.0166184
1020.1590,0.015722
1021.1232,0.0153618
1022.0875,0.0153756
1023.0517,0.0156383
1024.0160,0.016081
1024.9802,0.0166774
1025.9445,0.017417
1026.9087,0.0182868
1027.8729,0.0192694
1028.8372,0.0203562
1029.8014,0.021564
1030.7656,0.0229398
1031.7299,0.0245427
1032.6941,0.026406
1033.6583,0.028495
1034.6226,0.0306865
1035.5868,0.0327843
1036.5510,0.0345659
1037.5153,0.0358374
1038.4795,0.0364697
1039.4437,0.0364065
1040.4080,0.0356529
1041.3722,0.0342645
1042.3364,0.0323472
1043.3007,0.03006
1044.2649,0.0276042
1045.2291,0.0251927
1046.1934,0.0230088
1047.1576,0.0211729
1048.1218,0.019732
1049.0861,0.0186731
1050.0503,0.0179471
1051.0145,0.0174932
1051.9788,0.0172537
1052.9430,0.0171796
1053.9072,0.0172308
1054.8715,0.0173717
1055.8357,0.0175654
1056.7999,0.0177714
1057.7642,0.0179498
1058.7284,0.0180718
1059.6926,0.0181305
1060.6569,0.0181443
1061.6211,0.0181458
1062.5853,0.0181622
1063.5496,0.0181976
1064.5138,0.01823
1065.4780,0.0182246
1066.4423,0.0181555
1067.4065,0.0180225
1068.3707,0.0178522
1069.3350,0.0176853
1070.2992,0.0175587
1071.2634,0.0174966
1072.2277,0.0175141
1073.1919,0.0176269
1074.1561,0.0178543
1075.1204,0.0182068
1076.0846,0.0186635
1077.0488,0.0191596
1078.0131,0.0195998
1078.9773,0.019901
1079.9415,0.0200394
1080.9058,0.0200706
1081.8700,0.0201037
1082.8342,0.020239
1083.7985,0.0205075
1084.7627,0.0208503
1085.7269,0.0211531
1086.6912,0.0213136
1087.6554,0.0213011
1088.6196,0.0211709
1089.5839,0.0210303
1090.5481,0.0209801
1091.5123,0.0210691
1092.4766,0.0212836
1093.4408,0.0215709
1094.4050,0.0218754
1095.3693,0.0221654
1096.3335,0.0224374
1097.2977,0.0227048
1098.2620,0.0229813
1099.2262,0.023274
1100.1904,0.0235842
1101.1547,0.0239141
1102.1189,0.0242678
1103.0831,0.0246464
1104.0474,0.0250405
1105.0116,0.0254276
1105.9758,0.0257791
1106.9401,0.0260739
1107.9043,0.0263085
1108.8685,0.0264978
1109.8328,0.0266655
1110.7970,0.026832
1111.7612,0.0270084
1112.7255,0.0271989
1113.6897,0.0274079
1114.6539,0.0276437
1115.6182,0.0279197
1116.5824,0.0282543
1117.5466,0.0286775
1118.5109,0.029239
1119.4751,0.0300108
1120.4393,0.0310705
1121.4036,0.0324665
1122.3678,0.0341801
1123.3320,0.0361051
1124.2963,0.038062
1125.2605,0.0398406
1126.2247,0.0412502
1127.1890,0.0421514
1128.1532,0.0424606
1129.1174,0.0421366
1130.0817,0.0411709
1131.0459,0.0395947
1132.0101,0.037499
1132.9744,0.0350477
1133.9386,0.0324647
1134.9028,0.0299919
1135.8671,0.0278332
1136.8313,0.0261094
1137.7955,0.0248414
1138.7598,0.0239677
1139.7240,0.0233808
1140.6882,0.0229672
1141.6525,0.0226361
1142.6167,0.0223336
1143.5809,0.0220425
1144.5452,0.0217723
1145.5094,0.0215439
1146.4736,0.0213747
1147.4379,0.0212692
1148.4021,0.0212178
1149.3663,0.0212031
1150.3306,0.0212085
1151.2948,0.0212226
1152.2590,0.02124
1153.2233,0.0212604
1154.1875,0.0212898
1155.1517,0.0213433
1156.1160,0.0214467
1157.0802,0.0216299
1158.0444,0.0219166
1159.0087,0.0223136
1159.9729,0.0228098
1160.9371,0.0233854
1161.9014,0.0240261
1162.8656,0.0247318
1163.8298,0.025514
1164.7941,0.0263837
1165.7583,0.0273403
1166.7225,0.0283686
1167.6868,0.0294466
1168.6510,0.0305585
1169.6152,0.0317022
1170.5795,0.0328881
1171.5437,0.0341297
1172.5079,0.0354336
1173.4722,0.0367949
1174.4364,0.0381986
1175.4006,0.0396226
1176.3649,0.04104
1177.3291,0.0424167
1178.2933,0.0437124
1179.2576,0.0448863
1180.2218,0.0459097
1181.1860,0.0467793
1182.1503,0.0475204
1183.1145,0.0481779
1184.0787,0.0487965
1185.0430,0.0494022
1186.0072,0.049993
1186.9714,0.0505425
1187.9357,0.051012
1188.8999,0.0513624
1189.8641,0.0515624
1190.8284,0.0515914
1191.7926,0.0514406
1192.7568,0.0511134
1193.7211,0.0506248
1194.6853,0.0499989
1195.6495,0.0492631
1196.6138,0.0484439
1197.5780,0.0475657
1198.5422,0.046654
1199.5065,0.0457387
1200.4707,0.044852
1201.4349,0.0440219
1202.3992,0.043266
1203.3634,0.0425904
1204.3276,0.0419973
1205.2919,0.0414932
1206.2561,0.0410908
1207.2203,0.0408002
1208.1846,0.040614
1209.1488,0.0404986
1210.1130,0.0404001
1211.0773,0.0402627
1212.0415,0.0400498
1213.0057,0.0397536
1213.9700,0.0393874
1214.9342,0.0389674
1215.8984,0.0384978
1216.8627,0.0379693
1217.8269,0.0373709
1218.7911,0.0367034
1219.7554,0.035985
1220.7196,0.0352438
1221.6838,0.0345028
1222.6481,0.0337679
1223.6123,0.033026
1224.5765,0.0322544
1225.5408,0.0314359
1226.5050,0.0305695
1227.4692,0.0296731
1228.4335,0.028775
1229.3977,0.0279002
1230.3619,0.0270607
1231.3262,0.0262531
1232.2904,0.0254655
1233.2546,0.0246876
1234.2189,0.0239177
1235.1831,0.0231633
1236.1473,0.0224363
1237.1116,0.0217468
1238.0758,0.021099
1239.0400,0.0204918
1240.0043,0.0199206
1240.9685,0.0193792
1241.9327,0.0188627
1242.8970,0.0183686
1243.8612,0.0178989
1244.8254,0.0174592
1245.7897,0.0170553
1246.7539,0.0166887
1247.7181,0.0163537
1248.6824,0.0160382
1249.6466,0.015728
1250.6108,0.0154115
1251.5751,0.0150839
1252.5393,0.0147482
1253.5035,0.0144147
1254.4678,0.0140976
1255.4320,0.0138105
1256.3962,0.0135603
1257.3605,0.013343
1258.3247,0.0131454
1259.2889,0.0129529
1260.2532,0.0127607
1261.2174,0.0125797
1262.1816,0.0124322
1263.1459,0.0123378
1264.1101,0.0122991
1265.0743,0.0122978
1266.0386,0.0123028
1267.0028,0.0122844
1267.9670,0.0122267
1268.9313,0.0121297
1269.8955,0.0120042
1270.8597,0.0118633
1271.8240,0.0117182
1272.7882,0.0115794
1273.7524,0.011459
1274.7167,0.0113691
1275.6809,0.0113171
1276.6451,0.0112993
1277.6094,0.0113001
1278.5736,0.0112973
1279.5378,0.0112724
1280.5021,0.0112206
1281.4663,0.0111524
1282.4305,0.0110873
1283.3948,0.0110419
1284.3590,0.0110199
1285.3232,0.0110084
1286.2875,0.0109819
1287.2517,0.0109116
1288.2159,0.0107785
1289.1802,0.0105828
1290.1444,0.0103465
1291.1086,0.0101068
1292.0729,0.00990248
1293.0371,0.00975997
1294.0013,0.00968521
1294.9656,0.009664
1295.9298,0.00967075
1296.8940,0.00968109
1297.8583,0.00968132
1298.8225,0.00967017
1299.7867,0.00965388
1300.7510,0.00963953
1301.7152,0.00963104
1302.6794,0.00962849
1303.6437,0.00962894
1304.6079,0.00962756
1305.5721,0.00961971
1306.5364,0.00960451
1307.5006,0.00958766
1308.4648,0.00957977
1309.4291,0.00958911
1310.3933,0.00961303
1311.3575,0.00963589
1312.3218,0.0096377
1313.2860,0.00960945
1314.2502,0.00956246
1315.2145,0.00952151
1316.1787,0.0095047
1317.1429,0.00950561
1318.1072,0.00949258
1319.0714,0.00942902
1320.0356,0.00930128
1320.9999,0.00913099
1321.9641,0.00896067
1322.9283,0.00882614
1323.8926,0.00873832
1324.8568,0.00868471
1325.8210,0.00864504
1326.7853,0.00860736
1327.7495,0.00857253
1328.7137,0.0085453
1329.6780,0.00852321
1330.6422,0.00849796
1331.6064,0.00847283
1332.5707,0.0084832
1333.5349,0.0085995
1334.4991,0.00890257
1335.4634,0.00943879
1336.4276,0.0101692
1337.3918,0.0109319
1338.3561,0.0114605
1339.3203,0.0115075
1340.2845,0.0110224
1341.2488,0.0102017
1342.2130,0.00934308
1343.1772,0.00867018
1344.1415,0.00826976
1345.1057,0.00811895
1346.0699,0.00813553
1347.0342,0.00822293
1347.9984,0.00830511
1348.9626,0.00834672
1349.9269,0.00835287
1350.8911,0.00835149
1351.8553,0.00836911
1352.8196,0.00841247
1353.7838,0.00846418
1354.7480,0.00849786
1355.7123,0.00850734
1356.6765,0.0085291
1357.6407,0.00863472
1358.6050,0.00889347
1359.5692,0.00932293
1360.5334,0.00984512
1361.4977,0.0102795
1362.4619,0.0104265
1363.4261,0.0102216
1364.3904,0.0097951
1365.3546,0.00935882
1366.3188,0.00906639
1367.2831,0.00897002
1368.2473,0.00904967
1369.2115,0.00925968
1370.1758,0.00956248
1371.1400,0.0099336
1372.1042,0.0103392
1373.0685,0.0107111
1374.0327,0.0109556
1374.9969,0.0110132
1375.9612,0.0109133
1376.9254,0.0107512
1377.8896,0.010609
1378.8539,0.0105098
1379.8181,0.0104355
1380.7823,0.0103767
1381.7466,0.0103714
1382.7108,0.0104985
1383.6750,0.0108322
1384.6393,0.0113847
1385.6035,0.0120602
1386.5677,0.0126556
1387.5320,0.0129648
1388.4962,0.0129479
1389.4604,0.0127683
1390.4247,0.0126537
1391.3889,0.0127672
1392.3531,0.0131757
1393.3174,0.0138538
1394.2816,0.0146775
1395.2458,0.0154345
1396.2101,0.0158968
1397.1743,0.0159355
1398.1385,0.0155832
1399.1028,0.0149985
1400.0670,0.0143774
1401.0313,0.0138715
1401.9955,0.0135459
1402.9597,0.0133773
1403.9240,0.01328
1404.8882,0.0131548
1405.8524,0.0129511
1406.8167,0.0126965
1407.7809,0.0124609
1408.7451,0.0122927
1409.7094,0.0121921
1410.6736,0.012135
1411.6378,0.0121182
1412.6021,0.012185
1413.5663,0.0124059
1414.5305,0.0128301
1415.4948,0.0134413
1416.4590,0.0141214
1417.4232,0.0146333
1418.3875,0.0147111
1419.3517,0.0142982
1420.3159,0.0136444
1421.2802,0.013052
1422.2444,0.0126402
1423.2086,0.0123673
1424.1729,0.0121522
1425.1371,0.0119563
1426.1013,0.0117979
1427.0656,0.0117173
1428.0298,0.0117313
1428.9940,0.0118139
1429.9583,0.0119168
1430.9225,0.0120155
1431.8867,0.0121331
1432.8510,0.0123135
1433.8152,0.0125675
1434.7794,0.0128259
1435.7437,0.0129294
1436.7079,0.01272
1437.6721,0.012218
1438.6364,0.0116386
1439.6006,0.0111918
1440.5648,0.0109591
1441.5291,0.0109284
1442.4933,0.0110561
1443.4575,0.0112968
1444.4218,0.0116083
1445.3860,0.0119451
1446.3502,0.0122531
1447.3145,0.0124776
1448.2787,0.0125939
1449.2429,0.0126384
1450.2072,0.0126989
1451.1714,0.0128686
1452.1356,0.0132128
1453.0999,0.0137704
1454.0641,0.0145561
1455.0283,0.015505
1455.9926,0.0163038
1456.9568,0.0163112
1457.9210,0.0152185
1458.8853,0.0136797
1459.8495,0.0124208
1460.8137,0.0116209
1461.7780,0.0111894
1462.7422,0.0110023
1463.7064,0.0109452
1464.6707,0.0109108
1465.6349,0.0108338
1466.5991,0.0107366
1467.5634,0.0107049
1468.5276,0.0108266
1469.4918,0.0111685
1470.4561,0.0117677
1471.4203,0.0125748
1472.3845,0.013343
1473.3488,0.013657
1474.3130,0.0133131
1475.2772,0.0125499
1476.2415,0.0117272
1477.2057,0.0110452
1478.1699,0.0105527
1479.1342,0.0102255
1480.0984,0.0100139
1481.0626,0.00987229
1482.0269,0.00978485
1482.9911,0.00977985
1483.9553,0.00992153
1484.9196,0.0102836
1485.8838,0.010915
1486.8480,0.0117864
1487.8123,0.0127014
1488.7765,0.0132638
1489.7407,0.0131518
1490.7050,0.0125181
1491.6692,0.0118331
1492.6334,0.0114401
1493.5977,0.0114527
1494.5619,0.0118536
1495.5261,0.0125359
1496.4904,0.0132645
1497.4546,0.0136924
1498.4188,0.0135934
1499.3831,0.0130844
1500.3473,0.0124618
1501.3115,0.0119383
1502.2758,0.0116081
1503.2400,0.0115385
1504.2042,0.0118575
1505.1685,0.0127898
1506.1327,0.0144626
1507.0969,0.0162281
1508.0612,0.0167421
1509.0254,0.0158757
1509.9896,0.0145789
1510.9539,0.013471
1511.9181,0.0127376
1512.8823,0.0123968
1513.8466,0.0124043
1514.8108,0.0126623
1515.7750,0.0130233
1516.7393,0.0133387
1517.7035,0.0135279
1518.6677,0.0135955
1519.6320,0.0135824
1520.5962,0.0135179
1521.5604,0.0134179
1522.5247,0.0133024
1523.4889,0.0131776
1524.4531,0.0130034
1525.4174,0.0127091
1526.3816,0.0122637
1527.3458,0.011733
1528.3101,0.0112553
1529.2743,0.0109592
1530.2385,0.0109025
1531.2028,0.0110521
1532.1670,0.0112802
1533.1312,0.0114063
1534.0955,0.0113227
1535.0597,0.0110905
1536.0239,0.0108675
1536.9882,0.0107945
1537.9524,0.0109819
1538.9166,0.0115403
1539.8809,0.0124986
1540.8451,0.0134938
1541.8093,0.0138472
1542.7736,0.0134254
1543.7378,0.0126242
1544.7020,0.0117757
1545.6663,0.0110537
1546.6305,0.0105504
1547.5947,0.0102976
1548.5590,0.0102623
1549.5232,0.0103577
1550.4874,0.0104778
1551.4517,0.0105493
1552.4159,0.0105731
1553.3801,0.0106163
1554.3444,0.0107616
1555.3086,0.0110597
1556.2728,0.0114919
1557.2371,0.0118813
1558.2013,0.0117959
1559.1655,0.0109584
1560.1298,0.00987381
1561.0940,0.00908498
1562.0582,0.00863274
1563.0225,0.00839545
1563.9867,0.00828883
1564.9509,0.00827445
1565.9152,0.00832967
1566.8794,0.0084194
1567.8436,0.00848129
1568.8079,0.00844713
1569.7721,0.00830435
1570.7363,0.0081238
1571.7006,0.0079996
1572.6648,0.00798406
1573.6290,0.00807715
1574.5933,0.0082311
1575.5575,0.00834689
1576.5217,0.00831486
1577.4860,0.0081274
1578.4502,0.00789827
1579.4144,0.00773309
1580.3787,0.00765982
1581.3429,0.00765496
1582.3071,0.00767883
1583.2714,0.00769837
1584.2356,0.00770378
1585.1998,0.00771193
1586.1641,0.00775018
1587.1283,0.0078336
1588.0925,0.00795425
1589.0568,0.00808882
1590.0210,0.00821778
1590.9852,0.008341
1591.9495,0.00847712
1592.9137,0.00864725
1593.8779,0.00885588
1594.8422,0.00908357
1595.8064,0.00929759
1596.7706,0.00947152
1597.7349,0.009596
1598.6991,0.009673
1599.6633,0.00970257
1600.6276,0.00967586
1601.5918,0.00958163
1602.5560,0.0094221
1603.5203,0.00922372
1604.4845,0.00902947
1605.4487,0.00887587
1606.4130,0.00877235
1607.3772,0.00869663
1608.3414,0.00861014
1609.3057,0.00848848
1610.2699,0.00834512
1611.2341,0.00822292
1612.1984,0.00816244
1613.1626,0.00817857
1614.1268,0.00825215
1615.0911,0.00832653
1616.0553,0.00832323
1617.0195,0.00820859
1617.9838,0.00804842
1618.9480,0.0079424
1619.9122,0.00793637
1620.8765,0.00801793
1621.8407,0.00814207
1622.8049,0.00824803
1623.7692,0.00828242
1624.7334,0.00822977
1625.6976,0.00811441
1626.6619,0.00796931
1627.6261,0.00781698
1628.5903,0.00767825
1629.5546,0.00758318
1630.5188,0.00756617
1631.4830,0.0076556
1632.4473,0.00787088
1633.4115,0.00821766
1634.3757,0.00865565
1635.3400,0.00903974
1636.3042,0.00916415
1637.2684,0.00899749
1638.2327,0.00872092
1639.1969,0.00849668
1640.1611,0.0083849
1641.1254,0.0083968
1642.0896,0.00853757
1643.0538,0.00881731
1644.0181,0.00923764
1644.9823,0.009747
1645.9465,0.0101801
1646.9108,0.0103159
1647.8750,0.0101215
1648.8392,0.00980281
1649.8035,0.00956986
1650.7677,0.0095212
1651.7319,0.00965746
1652.6962,0.00983345
1653.6604,0.00974836
1654.6246,0.00932149
1655.5889,0.00882911
1656.5531,0.00847409
1657.5173,0.00828955
1658.4816,0.00825316
1659.4458,0.00833179
1660.4100,0.00847393
1661.3743,0.00860095
1662.3385,0.00864254
1663.3027,0.00860724
1664.2670,0.00858625
1665.2312,0.00867292
1666.1954,0.00890599
1667.1597,0.00926133
1668.1239,0.00964804
1669.0881,0.00991784
1670.0524,0.00995224
1671.0166,0.00978401
1671.9808,0.00956103
1672.9451,0.00939485
1673.9093,0.00930711
1674.8735,0.00927693
1675.8378,0.00929869
1676.8020,0.00940056
1677.7662,0.00961585
1678.7305,0.00995004
1679.6947,0.0103766
1680.6589,0.0108393
1681.6232,0.011235
1682.5874,0.0113907
1683.5516,0.011144
1684.5159,0.010589
1685.4801,0.0100722
1686.4443,0.00978077
1687.4086,0.00964518
1688.3728,0.0095414
1689.3370,0.00940732
1690.3013,0.0092568
1691.2655,0.00915401
1692.2297,0.0091765
1693.1940,0.00938408
1694.1582,0.00979593
1695.1224,0.0103663
1696.0867,0.0109615
1697.0509,0.0113771
1698.0151,0.0114418
1698.9794,0.0111609
1699.9436,0.01073
1700.9078,0.0103641
1701.8721,0.0101425
1702.8363,0.0100165
1703.8005,0.00989317
1704.7648,0.00969802
1705.7290,0.0094091
1706.6932,0.00907339
1707.6575,0.00878522
1708.6217,0.00863122
1709.5859,0.00865529
1710.5502,0.00886847
1711.5144,0.00927314
1712.4786,0.00987123
1713.4429,0.0106483
1714.4071,0.011527
1715.3713,0.0122893
1716.3356,0.0125598
1717.2998,0.0120924
1718.2640,0.0111658
1719.2283,0.0103109
1720.1925,0.00978088
1721.1567,0.00954095
1722.1210,0.00946643
1723.0852,0.0094493
1724.0494,0.00943425
1725.0137,0.00942968
1725.9779,0.00949431
1726.9421,0.00969872
1727.9064,0.0100844
1728.8706,0.0106445
1729.8348,0.0113248
1730.7991,0.0120202
1731.7633,0.0125559
1732.7275,0.0126987
1733.6918,0.0123134
1734.6560,0.0115739
1735.6202,0.010836
1736.5845,0.0103144
1737.5487,0.010033
1738.5129,0.0099504
1739.4772,0.0100326
1740.4414,0.010254
1741.4056,0.0105676
1742.3699,0.010898
1743.3341,0.0111782
1744.2983,0.0113915
1745.2626,0.0115787
1746.2268,0.0118064
1747.1910,0.0121106
1748.1553,0.0124269
1749.1195,0.0125633
1750.0837,0.0123214
1751.0480,0.0117072
1752.0122,0.0109486
1752.9764,0.010295
1753.9407,0.00987887
1754.9049,0.00971589
1755.8691,0.00975
1756.8334,0.0098916
1757.7976,0.0100495
1758.7618,0.0101533
1759.7261,0.0101574
1760.6903,0.0100379
1761.6545,0.00980451
1762.6188,0.00952037
1763.5830,0.00928938
1764.5472,0.00920453
1765.5115,0.00930348
1766.4757,0.00956061
1767.4399,0.00990332
1768.4042,0.0102355
1769.3684,0.0104638
1770.3326,0.0105237
1771.2969,0.0104015
1772.2611,0.0101444
1773.2253,0.00984419
1774.1896,0.00958763
1775.1538,0.00941899
1776.1180,0.00934266
1777.0823,0.00934074
1778.0465,0.00938374
1779.0107,0.00943773
1779.9750,0.00947536
1780.9392,0.00948641
1781.9034,0.00947476
1782.8677,0.00944292
1783.8319,0.00938572
1784.7961,0.0093052
1785.7604,0.00923011
1786.7246,0.00921407
1787.6888,0.00931015
1788.6531,0.00954326
1789.6173,0.00989179
1790.5815,0.0102741
1791.5458,0.0105537
1792.5100,0.0106083
1793.4742,0.0104368
1794.4385,0.010156
1795.4027,0.00988461
1796.3669,0.00968416
1797.3312,0.00957853
1798.2954,0.0095789
1799.2596,0.00967565
1800.2239,0.00981127
1801.1881,0.00988221
1802.1523,0.00979945
1803.1166,0.00955624
1804.0808,0.00923235
1805.0450,0.00894249
1806.0093,0.00878
1806.9735,0.00878198
1807.9377,0.0089172
1808.9020,0.00909663
1809.8662,0.00921143
1810.8304,0.00919261
1811.7947,0.00905346
1812.7589,0.00887213
1813.7231,0.0087307
1814.6874,0.00866833
1815.6516,0.00867423
1816.6158,0.00870867
1817.5801,0.00873542
1818.5443,0.00874976
1819.5085,0.00878234
1820.4728,0.0088741
1821.4370,0.00904244
1822.4012,0.00926164
1823.3655,0.00946893
1824.3297,0.0095993
1825.2939,0.00963066
1826.2582,0.00959711
1827.2224,0.00955156
1828.1866,0.00951349
1829.1509,0.0094504
1830.1151,0.00931339
1831.0793,0.00909826
1832.0436,0.00886091
1833.0078,0.00866811
1833.9720,0.00854866
1834.9363,0.00848682
1835.9005,0.00844587
1836.8647,0.00840291
1837.8290,0.0083755
1838.7932,0.00841633
1839.7574,0.00857915
1840.7217,0.00888691
1841.6859,0.0093153
1842.6501,0.00978165
1843.6144,0.0101493
1844.5786,0.0102874
1845.5428,0.0101671
1846.5071,0.00987497
1847.4713,0.0095226
1848.4355,0.00917835
1849.3998,0.00886904
1850.3640,0.00860592
1851.3282,0.00839901
1852.2925,0.00825572
1853.2567,0.00817474
1854.2209,0.00814578
1855.1852,0.00815611
1856.1494,0.00819649
1857.1136,0.00825974
1858.0779,0.00833332
1859.0421,0.00839469
1860.0063,0.00841876
1860.9706,0.00839675
1861.9348,0.00835269
1862.8990,0.00834156
1863.8633,0.00842769
1864.8275,0.00865578
1865.7917,0.00902307
1866.7560,0.00945241
1867.7202,0.00978569
1868.6844,0.00985091
1869.6487,0.00959698
1870.6129,0.00914365
1871.5771,0.00867149
1872.5414,0.00830267
1873.5056,0.00807611
1874.4698,0.00797483
1875.4341,0.00795547
1876.3983,0.00797069
1877.3625,0.00798656
1878.3268,0.00799045
1879.2910,0.0079854
1880.2552,0.00797739
1881.2195,0.0079676
1882.1837,0.00795566
1883.1479,0.00794891
1884.1122,0.00796608
1885.0764,0.00802854
1886.0406,0.00814325
1887.0049,0.0082886
1887.9691,0.00841476
1888.9333,0.00846655
1889.8976,0.00842126
1890.8618,0.00830933
1891.8260,0.00819226
1892.7903,0.00811791
1893.7545,0.00809282
1894.7188,0.00808633
1895.6830,0.0080578
1896.6472,0.00798859
1897.6115,0.00789592
1898.5757,0.00781749
1899.5399,0.00778232
1900.5042,0.00779297
1901.4684,0.00782957
1902.4326,0.00786961
1903.3969,0.00790846
1904.3611,0.00796477
1905.3253,0.0080655
1906.2896,0.00822029
1907.2538,0.00840232
1908.2180,0.00854929
1909.1823,0.00859189
1910.1465,0.00849987
1911.1107,0.00831147
1912.0750,0.00811594
1913.0392,0.00800288
1914.0034,0.00801936
1914.9677,0.00815518
1915.9319,0.00835261
1916.8961,0.0085359
1917.8604,0.00865398
1918.8246,0.00870842
1919.7888,0.00873619
1920.7531,0.00876129
1921.7173,0.00876401
1922.6815,0.0086942
1923.6458,0.008517
1924.6100,0.00825298
1925.5742,0.00797426
1926.5385,0.00775894
1927.5027,0.00764622
1928.4669,0.00762417
1929.4312,0.00764805
1930.3954,0.00767143
1931.3596,0.00767027
1932.3239,0.00764606
1933.2881,0.00761106
1934.2523,0.00757353
1935.2166,0.00753782
1936.1808,0.00751624
1937.1450,0.00753621
1938.1093,0.00763044
1939.0735,0.0078137
1940.0377,0.00805985
1941.0020,0.00829433
1941.9662,0.00841693
1942.9304,0.00835626
1943.8947,0.0081197
1944.8589,0.00778889
1945.8231,0.00746407
1946.7874,0.00721246
1947.7516,0.00705463
1948.7158,0.00697965
1949.6801,0.00696697
1950.6443,0.0069999
1951.6085,0.00706625
1952.5728,0.0071516
1953.5370,0.00723557
1954.5012,0.0072969
1955.4655,0.00732377
1956.4297,0.00731911
1957.3939,0.00729525
1958.3582,0.00726308
1959.3224,0.0072268
1960.2866,0.00718962
1961.2509,0.00716397
1962.2151,0.00717388
1963.1793,0.00724296
1964.1436,0.00737401
1965.1078,0.00753434
1966.0720,0.00766016
1967.0363,0.00768539
1968.0005,0.00758113
1968.9647,0.00737492
1969.9290,0.00713219
1970.8932,0.00691803
1971.8574,0.00676991
1972.8217,0.00669367
1973.7859,0.00667521
1974.7501,0.00669571
1975.7144,0.00674055
1976.6786,0.00679924
1977.6428,0.00686062
1978.6071,0.00691112
1979.5713,0.00693925
1980.5355,0.00694269
1981.4998,0.0069311
1982.4640,0.00692115
1983.4282,0.00692774
1984.3925,0.00695846
1985.3567,0.00701515
1986.3209,0.00709966
1987.2852,0.007216
1988.2494,0.00736422
1989.2136,0.00752833
1990.1779,0.00766854
1991.1421,0.00772977
1992.1063,0.00766927
1993.0706,0.00748745
1994.0348,0.00723448
1994.9990,0.00698468
1995.9633,0.00679976
1996.9275,0.00670602
1997.8917,0.00669283
1998.8560,0.00672678
1999.8202,0.00677194
2000.7844,0.00680544
2001.7487,0.00682131
2002.7129,0.00682382
2003.6771,0.00681923
2004.6414,0.00681222
2005.6056,0.0068066
2006.5698,0.00680537
2007.5341,0.00680805
2008.4983,0.00680851
2009.4625,0.0067986
2010.4268,0.0067778
2011.3910,0.0067615
2012.3552,0.00677867
2013.3195,0.00685646
2014.2837,0.00699961
2015.2479,0.00717771
2016.2122,0.00733166
2017.1764,0.00740116
2018.1406,0.00735872
2019.1049,0.00722513
2020.0691,0.00705418
2021.0333,0.00690039
2021.9976,0.00679403
2022.9618,0.00673633
2023.9260,0.0067113
2024.8903,0.00670229
2025.8545,0.00670142
2026.8187,0.00670771
2027.7830,0.00671915
2028.7472,0.00672804
2029.7114,0.00672421
2030.6757,0.00670269
2031.6399,0.0066684
2032.6041,0.0066339
2033.5684,0.00661243
2034.5326,0.00661263
2035.4968,0.00663821
2036.4611,0.00669065
2037.4253,0.00676982
2038.3895,0.00687022
2039.3538,0.00697597
2040.3180,0.00706126
2041.2822,0.00709971
2042.2465,0.00707879
2043.2107,0.00700892
2044.1749,0.00691953
2045.1392,0.00684411
2046.1034,0.00680403
2047.0676,0.00680096
2048.0320,0.00682028
2048.9961,0.00684155
2049.9604,0.0068489
2050.9246,0.00683611
2051.8889,0.00680572
2052.8530,0.00676533
2053.8174,0.00672406
2054.7815,0.00669032
2055.7458,0.00667054
2056.7100,0.00666853
2057.6743,0.006686
2058.6384,0.00672392
2059.6028,0.00678369
2060.5669,0.00686599
2061.5313,0.00696698
2062.4954,0.00707422
2063.4597,0.00716635
2064.4238,0.00721946
2065.3882,0.00721847
2066.3523,0.00716653
2067.3167,0.00708502
2068.2808,0.00700339
2069.2451,0.0069452
2070.2092,0.00691896
2071.1736,0.00691769
2072.1377,0.0069259
2073.1021,0.00692888
2074.0662,0.00691905
2075.0305,0.00689671
2075.9946,0.00686662
2076.9590,0.00683407
2077.9231,0.00680313
2078.8875,0.00677713
2079.8516,0.00675972
2080.8159,0.00675478
2081.7800,0.00676492
2082.7444,0.00678991
2083.7085,0.00682652
2084.6729,0.00687012
2085.6370,0.0069169
2086.6013,0.00696477
2087.5654,0.00701215
2088.5298,0.00705548
2089.4939,0.00708792
2090.4583,0.00710118
2091.4224,0.00709011
2092.3867,0.00705712
2093.3508,0.00701259
2094.3152,0.00697045
2095.2793,0.00694119
2096.2437,0.00692682
2097.2078,0.00692121
2098.1721,0.0069154
2099.1362,0.00690402
2100.1006,0.0068881
2101.0647,0.00687266
2102.0291,0.00686164
2102.9932,0.00685457
2103.9575,0.00684763
2104.9216,0.00683778
2105.8860,0.00682646
2106.8501,0.00681963
2107.8145,0.00682462
2108.7786,0.00684594
2109.7429,0.00688302
2110.7070,0.00693044
2111.6714,0.00697974
2112.6355,0.00702143
2113.5999,0.007047
2114.5640,0.00705111
2115.5283,0.00703356
2116.4924,0.00699994
2117.4568,0.0069597
2118.4209,0.00692226
2119.3853,0.00689339
2120.3494,0.00687421
2121.3137,0.00686316
2122.2778,0.0068592
2123.2422,0.00686342
2124.2063,0.00687768
2125.1707,0.00690131
2126.1348,0.0069289
2127.0991,0.00695149
2128.0632,0.00696134
2129.0276,0.00695746
2129.9917,0.00694811
2130.9561,0.00694791
2131.9202,0.00697039
2132.8845,0.00702015
2133.8486,0.00708927
2134.8130,0.00716058
2135.7771,0.0072162
2136.7415,0.0072464
2137.7056,0.00725348
2138.6699,0.00724838
2139.6340,0.00724248
2140.5984,0.00724017
2141.5625,0.00723671
2142.5269,0.00722228
2143.4910,0.00718919
2144.4553,0.00713769
2145.4194,0.00707717
2146.3838,0.00702227
2147.3479,0.00698649
2148.3123,0.00697681
2149.2764,0.0069919
2150.2407,0.00702453
2151.2048,0.00706584
2152.1692,0.00710829
2153.1333,0.00714523
2154.0977,0.00716824
2155.0618,0.0071659
2156.0261,0.00712762
2156.9902,0.00705204
2157.9546,0.00695417
2158.9187,0.00686417
2159.8831,0.00681511
2160.8472,0.00682514
2161.8115,0.0068856
2162.7756,0.00696419
2163.7400,0.00702285
2164.7041,0.00703901
2165.6685,0.00701638
2166.6326,0.0069788
2167.5969,0.0069527
2168.5610,0.00695121
2169.5254,0.00697001
2170.4895,0.00699569
2171.4539,0.00701823
2172.4180,0.00703782
2173.3823,0.00706199
2174.3464,0.00709705
2175.3108,0.00714153
2176.2749,0.00718623
2177.2393,0.00721982
2178.2034,0.0072354
2179.1677,0.00723338
2180.1318,0.00722013
2181.0962,0.00720421
2182.0603,0.00719319
2183.0247,0.00719213
2183.9888,0.0072034
2184.9531,0.00722669
2185.9172,0.00725873
2186.8816,0.00729324
2187.8457,0.00732178
2188.8101,0.00733601
2189.7742,0.00733093
2190.7385,0.00730771
2191.7026,0.00727446
2192.6670,0.00724408
2193.6311,0.00722981
2194.5955,0.00724017
2195.5596,0.00727585
2196.5239,0.00732983
2197.4880,0.00739044
2198.4524,0.00744575
2199.4165,0.00748727
2200.3809,0.00751202
2201.3450,0.00752241
2202.3093,0.00752458
2203.2734,0.00752571
2204.2378,0.00753121
2205.2019,0.00754276
2206.1663,0.00755833
2207.1304,0.00757401
2208.0947,0.00758645
2209.0588,0.00759441
2210.0232,0.00759829
2210.9873,0.00759852
2211.9517,0.00759468
2212.9158,0.0075862
2213.8801,0.00757438
2214.8442,0.00756342
2215.8086,0.00755926
2216.7727,0.00756626
2217.7371,0.00758435
2218.7012,0.00760841
2219.6655,0.00763071
2220.6296,0.00764433
2221.5940,0.0076458
2222.5581,0.0076356
2223.5225,0.0076176
2224.4866,0.00759822
2225.4509,0.00758567
2226.4150,0.00758818
2227.3794,0.00761076
2228.3435,0.00765142
2229.3079,0.00769963
2230.2720,0.00773927
2231.2363,0.00775558
2232.2004,0.00774268
2233.1648,0.00770716
2234.1289,0.00766504
2235.0933,0.00763384
2236.0574,0.00762393
2237.0217,0.0076344
2237.9858,0.00765525
2238.9502,0.00767433
2239.9143,0.00768457
2240.8787,0.00768734
2241.8428,0.00769009
2242.8071,0.00770042
2243.7712,0.00772022
2244.7356,0.00774413
2245.6997,0.00776322
2246.6641,0.0077718
2247.6282,0.00777263
2248.5925,0.00777653
2249.5566,0.00779602
2250.5210,0.00783642
2251.4851,0.00789045
2252.4495,0.00794027
2253.4136,0.00796652
2254.3779,0.00795882
2255.3420,0.00792121
2256.3064,0.00786881
2257.2705,0.00781838
2258.2349,0.00777898
2259.1990,0.00774911
2260.1633,0.00772155
2261.1274,0.00769141
2262.0918,0.00766081
2263.0559,0.00763673
2264.0203,0.007624
2264.9844,0.00761976
2265.9487,0.00761419
2266.9128,0.00759723
2267.8772,0.00756588
2268.8413,0.00752626
2269.8057,0.00748893
2270.7698,0.00746142
2271.7341,0.00744434
2272.6982,0.00743387
2273.6626,0.00742823
2274.6267,0.00743199
2275.5911,0.00745454
2276.5552,0.00750353
2277.5195,0.00757865
2278.4836,0.00767076
2279.4480,0.00776701
2280.4121,0.00785814
2281.3765,0.00794281
2282.3406,0.00802657
2283.3049,0.00811727
2284.2690,0.00822086
2285.2334,0.00834006
2286.1975,0.00847605
2287.1619,0.00863089
2288.1260,0.00880858
2289.0903,0.00901349
2290.0544,0.00924708
2291.0188,0.00950535
2291.9829,0.00977877
2292.9473,0.0100555
2293.9114,0.0103263
2294.8757,0.0105891
2295.8398,0.0108489
2296.8042,0.0111149
2297.7683,0.011394
2298.7327,0.0116877
2299.6968,0.0119921
2300.6611,0.0123047
2301.6252,0.0126297
2302.5896,0.0129817
2303.5537,0.0133807
2304.5181,0.013844
2305.4822,0.0143752
2306.4465,0.0149559
2307.4106,0.0155434
2308.3750,0.0160749
2309.3391,0.0164832
2310.3035,0.016719
2311.2676,0.0167742
2312.2319,0.0166914
2313.1960,0.0165517
2314.1604,0.0164439
2315.1245,0.0164304
2316.0889,0.0165278
2317.0530,0.0167084
2318.0173,0.0169158
2318.9814,0.017088
2319.9458,0.0171777
2320.9099,0.0171651
2321.8743,0.017058
2322.8384,0.0168814
2323.8027,0.0166645
2324.7668,0.0164304
2325.7312,0.0161906
2326.6953,0.0159419
2327.6597,0.0156691
2328.6238,0.0153532
2329.5881,0.0149868
2330.5522,0.0145842
2331.5166,0.0141747
2332.4807,0.0137804
2333.4451,0.0133975
2334.4092,0.0130012
2335.3735,0.0125736
2336.3376,0.012138
2337.3020,0.0117733
2338.2661,0.0115882
2339.2305,0.0116612
2340.1946,0.0119856
2341.1589,0.0124627
2342.1230,0.012945
2343.0874,0.0133117
2344.0515,0.0135472
2345.0159,0.0137389
2345.9800,0.0139761
2346.9443,0.014282
2347.9084,0.0146328
2348.8728,0.0149908
2349.8369,0.0153153
2350.8013,0.0155603
2351.7654,0.0156746
2352.7297,0.0156175
2353.6938,0.0154009
2354.6582,0.01512
2355.6223,0.0148928
2356.5867,0.0147339
2357.5508,0.0145417
2358.5151,0.0142483
2359.4792,0.0139672
2360.4436,0.0139574
2361.4077,0.0144022
2362.3721,0.0152378
2363.3362,0.0162
2364.3005,0.0170036
2365.2646,0.017498
2366.2290,0.0176987
2367.1931,0.0177028
2368.1575,0.0175893
2369.1216,0.0173834
2370.0859,0.0170813
2371.0500,0.016686
2372.0144,0.0162215
2372.9785,0.0157243
2373.9429,0.0152267
2374.9070,0.0147452
2375.8713,0.0142775
2376.8354,0.0138065
2377.7998,0.0133092
2378.7639,0.0127655
2379.7283,0.012165
2380.6924,0.01151
2381.6567,0.0108135
2382.6208,0.0100963
2383.5852,0.00938389
2384.5493,0.00870488
2385.5137,0.00808926
2386.4778,0.00756535
2387.4421,0.0071543
2388.4063,0.00686364
2389.3706,0.0066831
2390.3347,0.00658609
2391.2991,0.00653733
2392.2632,0.00650389
2393.2275,0.00646468
2394.1917,0.006414
2395.1560,0.00635852
2396.1201,0.00631007
2397.0845,0.00627827
2398.0486,0.0062661
2399.0129,0.00626933
2399.9771,0.0062792
2400.9414,0.0062862
2401.9055,0.00628344
2402.8699,0.00626802
2403.8340,0.00624046
2404.7983,0.00620305
2405.7625,0.00615886
2406.7268,0.00611211
2407.6909,0.00606951
2408.6553,0.00604061
2409.6194,0.00603573
2410.5837,0.00606164
2411.5479,0.00611737
2412.5122,0.00619311
2413.4763,0.00627351
2414.4407,0.00634384
2415.4048,0.00639569
2416.3691,0.0064291
2417.3333,0.00645042
2418.2976,0.00646766
2419.2617,0.00648631
2420.2261,0.00650757
2421.1902,0.00652925
2422.1545,0.00654806
2423.1187,0.00656153
2424.0830,0.00656862
2425.0471,0.00656926
2426.0115,0.00656341
2426.9756,0.00655094
2427.9399,0.0065323
2428.9041,0.00650979
2429.8684,0.00648799
2430.8325,0.00647275
2431.7969,0.00646868
2432.7610,0.00647659
2433.7253,0.00649277
2434.6895,0.0065107
2435.6538,0.00652454
2436.6179,0.00653195
2437.5823,0.00653458
2438.5464,0.00653608
2439.5107,0.00653948
2440.4749,0.0065459
2441.4392,0.00655547
2442.4033,0.00656893
2443.3677,0.00658796
2444.3318,0.00661344
2445.2961,0.00664304
2446.2603,0.00667047
2447.2246,0.0066877
2448.1887,0.00668919
2449.1531,0.00667506
2450.1172,0.00665116
2451.0815,0.00662592
2452.0457,0.0066063
2453.0100,0.00659543
2453.9741,0.00659312
2454.9385,0.00659817
2455.9026,0.0066103
2456.8669,0.00663009
2457.8311,0.00665718
2458.7954,0.00668807
2459.7595,0.00671556
2460.7239,0.00673086
2461.6880,0.00672796
2462.6523,0.00670804
2463.6165,0.00668105
2464.5808,0.00666241
2465.5449,0.00666554
2466.5093,0.006694
2467.4734,0.00673848
2468.4377,0.00678151
2469.4019,0.00680789
2470.3662,0.00681424
2471.3303,0.00681115
2472.2947,0.00681588
2473.2588,0.00684043
2474.2231,0.00688332
2475.1873,0.00693063
2476.1516,0.00696544
2477.1157,0.00697862
2478.0801,0.00697354
2479.0442,0.0069621
2480.0085,0.00695577
2480.9727,0.00695827
2481.9370,0.00696436
2482.9011,0.0069645
2483.8655,0.00695145
2484.8296,0.00692453
2485.7939,0.00689
2486.7581,0.00685815
2487.7224,0.00683904
2488.6865,0.00683829
2489.6509,0.00685443
2490.6150,0.0068789
2491.5793,0.00689954
2492.5435,0.00690662
2493.5078,0.00689836
2494.4719,0.00688243
2495.4363,0.00687177
2496.4004,0.00687717
2497.3647,0.00690137
2498.3289,0.00693866
2499.2932,0.00697965
2500.2573,0.00701721
2501.2217,0.00704887
2502.1858,0.00707449
2503.1501,0.00709236
2504.1143,0.00709836
2505.0786,0.00708949
2506.0427,0.00706872
2507.0071,0.00704602
2507.9712,0.00703299
2508.9355,0.00703448
2509.8997,0.00704345
2510.8640,0.0070438
2511.8281,0.00701988
2512.7925,0.00696629
2513.7566,0.00689149
2514.7209,0.00681346
2515.6851,0.00675122
2516.6494,0.00671788
2517.6135,0.00671853
2518.5779,0.00675184
2519.5420,0.00681219
2520.5063,0.00689048
2521.4705,0.00697449
2522.4348,0.00705067
2523.3989,0.00710778
2524.3633,0.0071404
2525.3274,0.00715018
2526.2917,0.00714396
2527.2559,0.00713092
2528.2202,0.00712037
2529.1843,0.00712092
2530.1487,0.00713901
2531.1128,0.00717595
2532.0771,0.0072244
2533.0413,0.00726779
2534.0056,0.00728531
2534.9697,0.00726127
2535.9341,0.00719399
2536.8982,0.00709837
2537.8625,0.00700008
2538.8267,0.00692417
2539.7910,0.00688461
2540.7551,0.00688031
2541.7195,0.00689885
2542.6836,0.00692486
2543.6479,0.00694784
2544.6121,0.00696542
2545.5764,0.00698164
2546.5405,0.00700213
2547.5049,0.00702982
2548.4690,0.00706329
2549.4333,0.00709829
2550.3975,0.00713095
2551.3618,0.00716052
2552.3259,0.0071897
2553.2903,0.0072224
2554.2544,0.00726007
2555.2188,0.00729921
2556.1829,0.00733187
2557.1472,0.00734929
2558.1113,0.00734665
2559.0757,0.00732581
2560.0398,0.0072941
2561.0042,0.0072597
2561.9683,0.0072267
2562.9326,0.00719312
2563.8967,0.00715357
2564.8611,0.00710461
2565.8252,0.00704951
2566.7896,0.00699896
2567.7537,0.00696727
2568.7180,0.00696613
2569.6821,0.00699933
2570.6465,0.00706103
2571.6106,0.00713803
2572.5750,0.00721465
2573.5391,0.00727795
2574.5034,0.0073214
2575.4675,0.00734595
2576.4319,0.0073584
2577.3960,0.00736807
2578.3604,0.00738304
2579.3245,0.00740718
2580.2888,0.00743883
2581.2529,0.00747115
2582.2173,0.00749393
2583.1814,0.00749662
2584.1458,0.00747226
2585.1099,0.00742154
2586.0742,0.00735481
2587.0383,0.00729006
2588.0027,0.00724625
2588.9668,0.0072344
2589.9312,0.00725131
2590.8953,0.00728015
2591.8596,0.00729879
2592.8237,0.00729169
2593.7881,0.00725859
2594.7522,0.00721498
2595.7166,0.00718381
2596.6807,0.00718356
2597.6450,0.00721908
2598.6091,0.00727993
2599.5735,0.00734635
2600.5376,0.00739883
2601.5020,0.00742639
2602.4661,0.00742965
2603.4304,0.00741803
2604.3945,0.00740337
2605.3589,0.00739353
2606.3230,0.00738936
2607.2874,0.0073861
2608.2515,0.00737773
2609.2158,0.00736113
2610.1799,0.00733757
2611.1443,0.00731111
2612.1084,0.00728582
2613.0728,0.00726439
2614.0369,0.00724863
2615.0012,0.00724087
2615.9653,0.00724395
2616.9297,0.00725938
2617.8938,0.00728514
2618.8582,0.00731521
2619.8223,0.0073417
2620.7866,0.00735816
2621.7507,0.00736189
2622.7151,0.00735405
2623.6792,0.0073386
2624.6436,0.00732114
2625.6077,0.00730824
2626.5720,0.00730592
2627.5361,0.00731703
2628.5005,0.00733847
2629.4646,0.00736123
2630.4290,0.00737446
2631.3931,0.00737198
2632.3574,0.00735662
2633.3215,0.00733906
2634.2859,0.00733174
2635.2500,0.00734193
2636.2144,0.00736875
2637.1785,0.00740505
2638.1428,0.00744186
2639.1069,0.00747164
2640.0713,0.00748924
2641.0354,0.00749216
2641.9998,0.00748186
2642.9639,0.00746521
2643.9282,0.00745336
2644.8923,0.00745626
2645.8567,0.00747526
2646.8208,0.00749945
2647.7852,0.00750962
2648.7493,0.00748876
2649.7136,0.00743252
2650.6777,0.00735258
2651.6421,0.00727074
2652.6062,0.0072081
2653.5706,0.0071763
2654.5347,0.00717574
2655.4990,0.00720003
2656.4631,0.007242
2657.4275,0.0072966
2658.3916,0.0073598
2659.3560,0.00742573
2660.3201,0.00748545
2661.2844,0.00752906
2662.2485,0.00754987
2663.2129,0.00754758
2664.1770,0.00752844
2665.1414,0.00750177
2666.1055,0.00747538
2667.0698,0.00745239
2668.0339,0.00743152
2668.9983,0.0074101
2669.9624,0.00738719
2670.9268,0.00736456
2671.8909,0.00734515
2672.8552,0.00733087
2673.8193,0.00732241
2674.7837,0.00732102
2675.7478,0.0073301
2676.7122,0.00735371
2677.6763,0.00739184
2678.6406,0.00743622
2679.6047,0.00747131
2680.5691,0.00748195
2681.5332,0.00746338
2682.4976,0.00742636
2683.4617,0.00739264
2684.4260,0.00738289
2685.3901,0.00740503
2686.3545,0.00745077
2687.3186,0.0075021
2688.2830,0.00754258
2689.2471,0.00756541
2690.2114,0.00757369
2691.1755,0.00757444
2692.1399,0.00757208
2693.1040,0.0075659
2694.0684,0.00755198
2695.0325,0.00752669
2695.9968,0.00748901
2696.9609,0.00744106
2697.9253,0.00738824
2698.8894,0.00733945
2699.8538,0.00730622
2700.8179,0.00729921
2701.7822,0.00732242
2702.7463,0.00736886
2703.7107,0.00742155
2704.6748,0.00746116
2705.6392,0.0074761
2706.6033,0.00746903
2707.5676,0.00745515
2708.5317,0.00745338
2709.4961,0.00747594
2710.4602,0.00752246
2711.4246,0.0075813
2712.3887,0.00763591
2713.3530,0.007672
2714.3171,0.00768198
2715.2815,0.00766582
2716.2456,0.00762954
2717.2100,0.00758237
2718.1741,0.00753366
2719.1384,0.00749023
2720.1025,0.00745519
2721.0669,0.00742909
2722.0310,0.0074125
2722.9954,0.00740791
2723.9595,0.00741868
2724.9238,0.00744521
2725.8879,0.00748156
2726.8523,0.00751603
2727.8164,0.00753682
2728.7808,0.00753921
2729.7449,0.00752889
2730.7092,0.00751818
2731.6733,0.00751745
2732.6377,0.00752809
2733.6018,0.00754254
2734.5662,0.00755139
2735.5303,0.00755181
2736.4946,0.0075503
2737.4587,0.00755705
2738.4231,0.00757647
2739.3872,0.00760132
2740.3516,0.00761594
2741.3157,0.00760649
2742.2800,0.007571
2743.2441,0.00752155
2744.2085,0.0074772
2745.1726,0.00745273
2746.1370,0.00745114
2747.1011,0.00746422
2748.0654,0.00747948
2749.0295,0.00748747
2749.9939,0.00748479
2750.9580,0.00747202
2751.9224,0.0074505
2752.8865,0.00742139
2753.8508,0.00738779
2754.8149,0.00735685
2755.7793,0.00733875
2756.7434,0.0073417
2757.7078,0.00736605
2758.6719,0.00740169
2759.6362,0.0074313
2760.6003,0.00743829
2761.5647,0.00741548
2762.5288,0.00736993
2763.4932,0.0073211
2764.4573,0.00729239
2765.4216,0.00729967
2766.3857,0.00734213
2767.3501,0.00740103
2768.3142,0.0074482
2769.2786,0.00746097
2770.2427,0.00743522
2771.2070,0.00738847
2772.1711,0.00734985
2773.1355,0.00734254
2774.0996,0.00736939
2775.0640,0.00741121
2776.0281,0.00743917
2776.9924,0.00743346
2777.9565,0.00739604
2778.9209,0.00734937
2779.8850,0.00732232
2780.8494,0.00733254
2781.8135,0.00737647
2782.7778,0.00743235
2783.7419,0.00747367
2784.7063,0.00748437
2785.6704,0.00746676
2786.6348,0.00743829
2787.5989,0.00741995
2788.5632,0.00742367
2789.5273,0.00744587
2790.4917,0.00747059
2791.4558,0.0074797
2792.4202,0.00746408
2793.3843,0.00742886
2794.3486,0.00739024
2795.3127,0.0073661
2796.2771,0.00736661
2797.2412,0.0073902
2798.2056,0.00742661
2799.1697,0.00746391
2800.1340,0.00749456
2801.0981,0.00751673
2802.0625,0.00753129
2803.0266,0.00753771
2803.9910,0.00753288
2804.9551,0.00751365
2805.9194,0.00748111
2806.8835,0.00744261
2807.8479,0.0074094
2808.8120,0.0073909
2809.7764,0.00738926
2810.7405,0.00739809
2811.7048,0.0074063
2812.6689,0.00740464
2813.6333,0.00739071
2814.5974,0.0073689
2815.5618,0.00734583
2816.5259,0.0073246
2817.4902,0.00730242
2818.4543,0.00727367
2819.4187,0.00723621
2820.3828,0.00719647
2821.3472,0.00716892
2822.3113,0.00716929
2823.2756,0.00720516
2824.2397,0.00726974
2825.2041,0.00734315
2826.1682,0.00740105
2827.1326,0.00742637
2828.0967,0.00741763
2829.0610,0.00738931
2830.0251,0.00736413
2830.9895,0.00736144
2831.9536,0.00738814
2832.9180,0.00743691
2833.8821,0.00749214
2834.8464,0.00753947
2835.8105,0.00757306
2836.7749,0.00759642
2837.7390,0.00761731
2838.7034,0.00764089
2839.6675,0.00766625
2840.6318,0.00768859
2841.5959,0.00770484
2842.5603,0.00771819
2843.5244,0.0077375
2844.4888,0.00777171
2845.4529,0.00782313
2846.4172,0.00788424
2847.3813,0.00794071
2848.3457,0.00797898
2849.3098,0.00799392
2850.2742,0.00799174
2851.2383,0.00798635
2852.2026,0.00799174
2853.1667,0.00801506
2854.1311,0.00805433
2855.0952,0.00810117
2856.0596,0.00814613
2857.0237,0.00818329
2857.9880,0.00821156
2858.9521,0.00823289
2859.9165,0.00824947
2860.8806,0.00826198
2861.8450,0.00826992
2862.8091,0.0082732
2863.7734,0.00827314
2864.7375,0.00827219
2865.7019,0.0082727
2866.6660,0.00827614
2867.6304,0.00828316
2868.5945,0.00829418
2869.5588,0.00830937
2870.5229,0.00832777
2871.4873,0.00834635
2872.4514,0.00836058
2873.4158,0.00836637
2874.3799,0.00836234
2875.3442,0.00834998
2876.3083,0.00833121
2877.2727,0.00830477
2878.2368,0.00826471
2879.2012,0.00820313
2880.1653,0.00811604
2881.1296,0.00800907
2882.0938,0.00789874
2883.0581,0.0078077
2884.0222,0.00775581
2884.9866,0.00775137
2885.9507,0.00778691
2886.9150,0.007842
2887.8792,0.00789193
2888.8435,0.00791859
2889.8076,0.00791849
2890.7720,0.00790383
2891.7361,0.00789573
2892.7004,0.00791282
2893.6646,0.00796106
2894.6289,0.00803039
2895.5930,0.00810026
2896.5574,0.00815065
2897.5215,0.0081721
2898.4858,0.00816921
2899.4500,0.00815608
2900.4143,0.00814738
2901.3784,0.00815068
2902.3428,0.00816417
2903.3069,0.00817983
2904.2712,0.00818964
2905.2354,0.00819101
2906.1997,0.00818883
2907.1638,0.00819344
2908.1282,0.00821526
2909.0923,0.00825857
2910.0566,0.00831796
2911.0208,0.00838017
2911.9851,0.00843144
2912.9492,0.00846702
2913.9136,0.00849647
2914.8777,0.00854063
2915.8420,0.00862066
2916.8062,0.00874538
2917.7705,0.00890475
2918.7346,0.00907364
2919.6990,0.00922331
2920.6631,0.00933318
2921.6274,0.0093966
2922.5916,0.00941912
2923.5559,0.00941255
2924.5200,0.00938931
2925.4844,0.00935935
2926.4485,0.00932922
2927.4128,0.00930193
2928.3770,0.00927712
2929.3413,0.00925205
2930.3054,0.00922352
2931.2698,0.00918951
2932.2339,0.00914936
2933.1982,0.00910209
2934.1624,0.00904491
2935.1267,0.00897393
2936.0908,0.00888769
2937.0552,0.0087913
2938.0193,0.008698
2938.9836,0.00862595
2939.9478,0.00859128
2940.9121,0.00860061
2941.8762,0.00864672
2942.8406,0.00870921
2943.8047,0.00876035
2944.7690,0.00877406
2945.7332,0.00873548
2946.6975,0.00864795
2947.6616,0.00853398
2948.6260,0.00842855
2949.5901,0.00836612
2950.5544,0.0083663
2951.5186,0.00842488
2952.4829,0.0085148
2953.4470,0.00859749
2954.4114,0.00863952
2955.3755,0.00862656
2956.3398,0.00856795
2957.3040,0.00849006
2958.2683,0.00842253
2959.2324,0.00838483
2960.1968,0.00837919
2961.1609,0.00839228
2962.1252,0.00840339
2963.0894,0.00839448
2964.0537,0.00835729
2965.0178,0.00829484
2965.9822,0.00821813
2966.9463,0.00814097
2967.9106,0.00807632
2968.8748,0.00803495
2969.8391,0.00802509
2970.8032,0.00805043
2971.7676,0.00810623
2972.7317,0.0081763
2973.6960,0.00823546
2974.6602,0.00825949
2975.6245,0.0082383
2976.5886,0.00818381
2977.5530,0.00812532
2978.5171,0.00809355
2979.4814,0.00810245
2980.4456,0.00814061
2981.4099,0.00817849
2982.3740,0.00818691
2983.3384,0.00815483
2984.3025,0.00809496
2985.2668,0.00803499
2986.2310,0.00800108
2987.1953,0.00800435
2988.1594,0.00803698
2989.1238,0.00807832
2990.0879,0.00810562
2991.0522,0.00810324
2992.0164,0.0080668
2992.9807,0.00800221
2993.9448,0.0079214
2994.9092,0.00783718
2995.8733,0.0077598
2996.8376,0.00769659
2997.8018,0.00765386
2998.7661,0.00763782
2999.7302,0.00765204
3000.6946,0.00769191
3001.6587,0.00774107
3002.6230,0.00777489
3003.5872,0.00777215
3004.5515,0.00772874
3005.5156,0.00766363
3006.4800,0.00761107
3007.4441,0.00760295
3008.4084,0.00765222
3009.3726,0.00774736
3010.3369,0.0078601
3011.3010,0.00796008
3012.2654,0.00802732
3013.2295,0.00805602
3014.1938,0.00805021
3015.1580,0.00801709
3016.1223,0.00796373
3017.0864,0.0078985
3018.0508,0.00783376
3019.0149,0.00778588
3019.9792,0.00777106
3020.9434,0.00779914
3021.9077,0.00786891
3022.8718,0.00796766
3023.8362,0.00807573
3024.8003,0.0081741
3025.7646,0.00825154
3026.7288,0.00830771
3027.6931,0.00835031
3028.6572,0.0083882
3029.6216,0.00842449
3030.5857,0.00845389
3031.5500,0.00846603
3032.5142,0.00845271
3033.4785,0.00841406
3034.4426,0.00835933
3035.4070,0.00830186
3036.3711,0.00825256
3037.3354,0.00821674
3038.2996,0.00819634
3039.2639,0.00819476
3040.2280,0.00821901
3041.1924,0.00827555
3042.1565,0.00836141
3043.1208,0.00845717
3044.0850,0.00852936
3045.0493,0.00854371
3046.0134,0.00848278
3046.9778,0.00835705
3047.9419,0.00820192
3048.9063,0.00806157
3049.8704,0.00796944
3050.8347,0.0079372
3051.7988,0.00795746
3052.7632,0.00801478
3053.7273,0.00809476
3054.6917,0.0081852
3055.6558,0.00827168
3056.6201,0.00833543
3057.5842,0.00835813
3058.5486,0.00833144
3059.5127,0.00826313
3060.4771,0.00817473
3061.4412,0.00809201
3062.4055,0.00803473
3063.3696,0.00801062
3064.3340,0.00801464
3065.2981,0.00803184
3066.2625,0.00804159
3067.2266,0.00802326
3068.1909,0.00796292
3069.1550,0.00785971
3070.1194,0.00772813
3071.0835,0.00759394
3072.0479,0.00748454
3073.0120,0.00741879
3073.9763,0.0074017
3074.9404,0.00742579
3075.9048,0.00747646
3076.8689,0.00753661
3077.8333,0.00758879
3078.7974,0.00761709
3079.7617,0.00761137
3080.7258,0.007573
3081.6902,0.00751679
3082.6543,0.00746511
3083.6187,0.00743594
3084.5828,0.00743259
3085.5471,0.00744263
3086.5112,0.00744731
3087.4756,0.0074349
3088.4397,0.00740825
3089.4041,0.00738086
3090.3682,0.00736459
3091.3325,0.00735916
3092.2966,0.00735189
3093.2610,0.00732833
3094.2251,0.00728581
3095.1895,0.00723929
3096.1536,0.00721383
3097.1179,0.00722779
3098.0820,0.00727842
3099.0464,0.00733984
3100.0105,0.00737554
3100.9749,0.00735856
3101.9390,0.00728766
3102.9033,0.00718969
3103.8674,0.00710582
3104.8318,0.00707011
3105.7959,0.00709263
3106.7603,0.00715566
3107.7244,0.00722372
3108.6887,0.00726231
3109.6528,0.00725612
3110.6172,0.00721688
3111.5813,0.00717652
3112.5457,0.00716938
3113.5098,0.00721389
3114.4741,0.00730302
3115.4382,0.00740803
3116.4026,0.00749308
3117.3667,0.00753187
3118.3311,0.00751731
3119.2952,0.00746
3120.2595,0.00737917
3121.2236,0.00729332
3122.1880,0.00721505
3123.1521,0.00715068
3124.1165,0.00710167
3125.0806,0.00706602
3126.0449,0.00703945
3127.0090,0.00701757
3127.9734,0.00699878
3128.9375,0.00698554
3129.9019,0.00698201
3130.8660,0.00698853
3131.8303,0.00699748
3132.7944,0.00699504
3133.7588,0.00696977
3134.7229,0.00692265
3135.6873,0.00687002
3136.6514,0.00683571
3137.6157,0.00683689
3138.5798,0.00687268
3139.5442,0.00692353
3140.5083,0.00696207
3141.4727,0.00696867
3142.4368,0.00694131
3143.4011,0.00689372
3144.3652,0.00684475
3145.3296,0.00680792
3146.2937,0.00678827
3147.2581,0.00678653
3148.2222,0.0068043
3149.1865,0.00684386
3150.1506,0.00690214
3151.1150,0.00696505
3152.0791,0.00700948
3153.0435,0.00701458
3154.0076,0.00697531
3154.9719,0.00690763
3155.9360,0.00683963
3156.9004,0.00679384
3157.8645,0.00677361
3158.8289,0.00676382
3159.7930,0.00674599
3160.7573,0.00671618
3161.7214,0.00669163
3162.6858,0.00670008
3163.6499,0.0067586
3164.6143,0.00685747
3165.5784,0.00696117
3166.5427,0.00702658
3167.5068,0.00702668
3168.4712,0.00696448
3169.4353,0.00686947
3170.3997,0.00678054
3171.3638,0.00672692
3172.3281,0.00671771
3173.2922,0.00674354
3174.2566,0.00678576
3175.2207,0.00682635
3176.1851,0.006854
3177.1492,0.0068654
3178.1135,0.00686321
3179.0776,0.00685187
3180.0420,0.00683321
3181.0061,0.0068043
3181.9705,0.00676003
3182.9346,0.00669996
3183.8989,0.0066353
3184.8630,0.00658964
3185.8274,0.00658969
3186.7915,0.00664962
3187.7559,0.0067593
3188.7200,0.00688566
3189.6843,0.00698801
3190.6484,0.00703872
3191.6128,0.00703649
3192.5769,0.00700408
3193.5413,0.00697241
3194.5054,0.00696188
3195.4697,0.00697259
3196.4338,0.00698804
3197.3982,0.00698788
3198.3623,0.00696114
3199.3267,0.00691209
3200.2908,0.00685712
3201.2551,0.00681611
3202.2192,0.00680389
3203.1836,0.00682466
3204.1477,0.00687054
3205.1121,0.00692427
3206.0762,0.0069656
3207.0405,0.00697934
3208.0046,0.00696182
3208.9690,0.0069221
3209.9331,0.00687716
3210.8975,0.0068437
3211.8616,0.00683152
3212.8259,0.00684168
3213.7900,0.00686908
3214.7544,0.00690626
3215.7185,0.00694541
3216.6829,0.00697805
3217.6470,0.00699477
3218.6113,0.00698713
3219.5754,0.00695222
3220.5398,0.00689664
3221.5039,0.00683608
3222.4683,0.0067888
3223.4324,0.00676612
3224.3967,0.00676624
3225.3608,0.00677603
3226.3252,0.00678065
3227.2893,0.00677547
3228.2537,0.00677154
3229.2178,0.00678939
3230.1821,0.00684378
3231.1462,0.00693039
3232.1106,0.00702534
3233.0747,0.00709965
3234.0391,0.00713921
3235.0032,0.00715503
3235.9675,0.00717438
3236.9316,0.00721805
3237.8960,0.00728093
3238.8601,0.00733196
3239.8245,0.00733535
3240.7886,0.00727809
3241.7529,0.0071832
3242.7170,0.00709868
3243.6814,0.00706884
3244.6455,0.0071069
3245.6099,0.00718688
3246.5740,0.00726035
3247.5383,0.00728621
3248.5024,0.00725303
3249.4668,0.00718118
3250.4309,0.00710716
3251.3953,0.00706275
3252.3594,0.00706082
3253.3237,0.00709318
3254.2878,0.00713881
3255.2522,0.00717629
3256.2163,0.00719349
3257.1807,0.00719045
3258.1448,0.0071757
3259.1091,0.00715935
3260.0732,0.00714745
3261.0376,0.00714029
3262.0017,0.00713482
3262.9661,0.00712909
3263.9302,0.00712524
3264.8945,0.00712902
3265.8586,0.0071459
3266.8230,0.0071765
3267.7871,0.00721458
3268.7515,0.00724962
3269.7156,0.00727311
3270.6799,0.00728526
3271.6440,0.0072977
3272.6084,0.00732926
3273.5725,0.00739508
3274.5369,0.00749445
3275.5010,0.00760531
3276.4653,0.00769122
3277.4294,0.00771864
3278.3938,0.00767489
3279.3579,0.00757589
3280.3223,0.00745848
3281.2864,0.00736142
3282.2507,0.00730602
3283.2148,0.00728799
3284.1792,0.00728539
3285.1433,0.00727683
3286.1077,0.00725697
3287.0718,0.00723868
3288.0361,0.00724169
3289.0002,0.00727735
3289.9646,0.00734093
3290.9287,0.00741683
3291.8931,0.0074914
3292.8572,0.00756204
3293.8215,0.0076341
3294.7856,0.00770814
3295.7500,0.00776914
3296.7141,0.00778924
3297.6785,0.00774537
3298.6426,0.0076402
3299.6069,0.00750986
3300.5710,0.00740951
3301.5354,0.00738398
3302.4995,0.00744279
3303.4639,0.00755655
3304.4280,0.00767716
3305.3923,0.00776787
3306.3564,0.0078227
3307.3208,0.00786269
3308.2849,0.00791269
3309.2493,0.00797663
3310.2134,0.00802996
3311.1777,0.00803508
3312.1418,0.00796778
3313.1062,0.00783534
3314.0703,0.00767446
3315.0347,0.00753261
3315.9988,0.00744574
3316.9631,0.00742577
3317.9272,0.00746219
3318.8916,0.00753293
3319.8557,0.00761564
3320.8201,0.00769352
3321.7842,0.00775598
3322.7485,0.00779748
3323.7126,0.00781747
3324.6770,0.00782081
3325.6411,0.00781668
3326.6055,0.00781478
3327.5696,0.00782042
3328.5339,0.00783182
3329.4980,0.00784194
3330.4624,0.00784396
3331.4265,0.00783698
3332.3909,0.00782813
3333.3550,0.00782949
3334.3193,0.00785122
3335.2834,0.00789512
3336.2478,0.00795315
3337.2119,0.0080122
3338.1763,0.0080617
3339.1404,0.00809783
3340.1047,0.00812087
3341.0688,0.00812877
3342.0332,0.00811417
3342.9973,0.00806982
3343.9617,0.00799979
3344.9258,0.00792671
3345.8901,0.00788598
3346.8542,0.00790761
3347.8186,0.00799702
3348.7827,0.00812886
3349.7471,0.00825951
3350.7112,0.00835071
3351.6755,0.008389
3352.6396,0.00838878
3353.6040,0.00837959
3354.5681,0.00838813
3355.5325,0.00842725
3356.4966,0.00849524
3357.4609,0.00858079
3358.4250,0.00866707
3359.3894,0.00873383
3360.3535,0.00876175
3361.3179,0.00874164
3362.2820,0.00868422
3363.2463,0.00862144
3364.2104,0.00859376
3365.1748,0.00862852
3366.1389,0.00872288
3367.1033,0.00884352
3368.0674,0.00894456
3369.0317,0.00899276
3369.9958,0.00898352
3370.9602,0.00893862
3371.9243,0.0088894
3372.8887,0.00885809
3373.8528,0.00884884
3374.8171,0.00885258
3375.7813,0.00886024
3376.7456,0.00887449
3377.7097,0.00891124
3378.6741,0.00898906
3379.6382,0.00911232
3380.6025,0.00925909
3381.5667,0.00938287
3382.5310,0.00943059
3383.4951,0.00936972
3384.4595,0.00921093
3385.4236,0.00901091
3386.3879,0.00884955
3387.3521,0.00879245
3388.3164,0.00886147
3389.2805,0.00902936
3390.2449,0.00923791
3391.2090,0.00942746
3392.1733,0.00956175
3393.1375,0.00963562
3394.1018,0.00966376
3395.0659,0.00966216
3396.0303,0.00963872
3396.9944,0.00959837
3397.9587,0.00955358
3398.9229,0.00952626
3399.8872,0.00953584
3400.8513,0.00958256
3401.8157,0.00964114
3402.7798,0.00967308
3403.7441,0.00965045
3404.7083,0.00957386
3405.6726,0.00947114
3406.6367,0.00937889
3407.6011,0.00932163
3408.5652,0.00930306
3409.5295,0.00931178
3410.4937,0.009333
3411.4580,0.00935591
3412.4221,0.00937408
3413.3865,0.00938409
3414.3506,0.00938824
3415.3149,0.00939966
3416.2791,0.00944211
3417.2434,0.00953885
3418.2075,0.00969407
3419.1719,0.00987854
3420.1360,0.0100329
3421.1003,0.0100942
3422.0645,0.0100333
3423.0288,0.00987568
3423.9929,0.00969076
3424.9573,0.00955525
3425.9214,0.00951623
3426.8857,0.00957087
3427.8499,0.00967045
3428.8142,0.00974663
3429.7783,0.00974763
3430.7427,0.00966489
3431.7068,0.00953433
3432.6711,0.00941335
3433.6353,0.00934972
3434.5996,0.00936154
3435.5637,0.00943685
3436.5281,0.00954725
3437.4922,0.00966263
3438.4565,0.009758
3439.4207,0.00981381
3440.3850,0.00981809
3441.3491,0.00977396
3442.3135,0.00970638
3443.2776,0.00965727
3444.2419,0.00966548
3445.2061,0.00974071
3446.1704,0.0098484
3447.1345,0.00992134
3448.0989,0.00989722
3449.0630,0.00975658
3450.0273,0.00953086
3450.9915,0.00927871
3451.9558,0.00905523
3452.9199,0.00889485
3453.8843,0.00881122
3454.8484,0.00880608
3455.8127,0.0088772
3456.7769,0.00901911
3457.7412,0.00921671
3458.7053,0.00943816
3459.6697,0.00963527
3460.6338,0.00975629
3461.5981,0.00976847
3462.5623,0.0096781
3463.5266,0.00953268
3464.4907,0.00940051
3465.4551,0.00933837
3466.4192,0.00936513
3467.3835,0.00945486
3468.3477,0.00955296
3469.3120,0.00960595
3470.2761,0.00958622
3471.2405,0.00949713
3472.2046,0.0093607
3473.1689,0.0092034
3474.1331,0.0090528
3475.0974,0.00894321
3476.0615,0.00891686
3477.0259,0.00901012
3477.9900,0.00922885
3478.9543,0.00952846
3479.9185,0.00981608
3480.8828,0.00998613
3481.8469,0.00997942
3482.8113,0.00982512
3483.7754,0.00962458
3484.7397,0.00948735
3485.7039,0.00946964
3486.6682,0.00955172
3487.6323,0.0096583
3488.5967,0.00970769
3489.5608,0.00966228
3490.5251,0.00954671
3491.4893,0.00942285
3492.4536,0.00934512
3493.4177,0.00932968
3494.3821,0.00935464
3495.3462,0.00938869
3496.3105,0.00942872
3497.2747,0.00951493
3498.2390,0.00970578
3499.2031,0.0100289
3500.1675,0.0104409
3501.1316,0.0108213
3502.0959,0.0110171
3503.0601,0.0109344
3504.0244,0.0106169
3504.9885,0.0102263
3505.9529,0.00993608
3506.9170,0.00983498
3507.8813,0.00990061
3508.8455,0.0100305
3509.8098,0.0101038
3510.7739,0.0100495
3511.7383,0.00987918
3512.7024,0.00966133
3513.6667,0.00946465
3514.6309,0.00931871
3515.5952,0.00921192
3516.5593,0.0091188
3517.5237,0.00903598
3518.4878,0.00900226
3519.4521,0.00908645
3520.4163,0.00934756
3521.3806,0.00978803
3522.3447,0.0103268
3523.3091,0.0108171
3524.2732,0.0111115
3525.2375,0.0111353
3526.2017,0.0109115
3527.1660,0.0105261
3528.1301,0.0100718
3529.0945,0.00961601
3530.0586,0.00920484
3531.0229,0.00888359
3531.9871,0.00870249
3532.9514,0.00869814
3533.9155,0.00886178
3534.8799,0.00911659
3535.8440,0.00932983
3536.8083,0.00937518
3537.7725,0.00921695
3538.7368,0.00894798
3539.7009,0.00874574
3540.6653,0.00878632
3541.6294,0.0091706
3542.5938,0.00987598
3543.5579,0.0107282
3544.5222,0.0114223
3545.4863,0.0116523
3546.4507,0.0113155
3547.4148,0.010596
3548.3792,0.00982113
3549.3433,0.00924985
3550.3076,0.00897038
3551.2717,0.00890935
3552.2361,0.00890336
3553.2002,0.00880874
3554.1646,0.00859732
3555.1287,0.00836047
3556.0930,0.00822433
3557.0571,0.00826348
3558.0215,0.00847043
3558.9856,0.00877852
3559.9500,0.00911843
3560.9141,0.00947649
3561.8784,0.00990994
3562.8425,0.0105032
3563.8069,0.0112905
3564.7710,0.0121677
3565.7354,0.0128259
3566.6995,0.0128486
3567.6638,0.0120757
3568.6279,0.0108363
3569.5923,0.00963667
3570.5564,0.00877594
3571.5208,0.00830695
3572.4849,0.00815399
3573.4492,0.00819824
3574.4133,0.00831989
3575.3777,0.00842715
3576.3418,0.00847421
3577.3062,0.00845591
3578.2703,0.00838666
3579.2346,0.00828965
3580.1987,0.0082067
3581.1631,0.00821095
3582.1272,0.00839829
3583.0916,0.00885469
3584.0557,0.00960726
3585.0200,0.0105551
3585.9841,0.0113969
3586.9485,0.0116928
3587.9126,0.0112182
3588.8770,0.0102672
3589.8411,0.00938666
3590.8054,0.00892757
3591.7695,0.00893511
3592.7339,0.00924169
3593.6980,0.00956886
3594.6624,0.00965684
3595.6265,0.00942774
3596.5908,0.00903309
3597.5549,0.00870184
3598.5193,0.00855319
3599.4834,0.00854025
3600.4478,0.00852908
3601.4119,0.00843575
3602.3762,0.00830476
3603.3403,0.00826059
3604.3047,0.00839998
3605.2688,0.00872019
3606.2332,0.00910532
3607.1973,0.00937537
3608.1616,0.0094063
3609.1257,0.00924281
3610.0901,0.00906474
3611.0542,0.00903131
3612.0186,0.00917464
3612.9827,0.00941636
3613.9470,0.00965516
3614.9111,0.00984164
3615.8755,0.00998118
3616.8396,0.0100698
3617.8040,0.0100269
3618.7681,0.00970943
3619.7324,0.00905582
3620.6965,0.00822891
3621.6609,0.00753268
3622.6250,0.00719796
3623.5894,0.00730206
3624.5535,0.0078185
3625.5178,0.00865895
3626.4819,0.00964189
3627.4463,0.0104119
3628.4104,0.0105016
3629.3748,0.00976916
3630.3389,0.00866985
3631.3032,0.00774545
3632.2673,0.00718809
3633.2317,0.00694213
3634.1958,0.00689178
3635.1602,0.00693888
3636.1243,0.0070187
3637.0886,0.00709773
3638.0527,0.00716566
3639.0171,0.00722671
3639.9812,0.0072949
3640.9456,0.00739386
3641.9097,0.00755668
3642.8740,0.0078237
3643.8381,0.0082405
3644.8025,0.0088563
3645.7666,0.00970919
3646.7310,0.0107585
3647.6951,0.011715
3648.6594,0.0119406
3649.6235,0.0110334
3650.5879,0.0095507
3651.5520,0.00828549
3652.5164,0.0075045
3653.4805,0.00712503
3654.4448,0.00698163
3655.4089,0.006914
3656.3733,0.00680398
3657.3374,0.00662076
3658.3018,0.00642135
3659.2659,0.00627732
3660.2302,0.00620995
3661.1943,0.00619277
3662.1587,0.00619441
3663.1228,0.00621984
3664.0872,0.00632015
3665.0513,0.0065633
3666.0156,0.00698957
3666.9797,0.00757123
3667.9441,0.00817546
3668.9082,0.00857103
3669.8726,0.00858445
3670.8367,0.00831839
3671.8010,0.00808374
3672.7651,0.00811946
3673.7295,0.00845819
3674.6936,0.00891406
3675.6580,0.00913171
3676.6221,0.00885473
3677.5864,0.00820785
3678.5505,0.00750964
3679.5149,0.00695808
3680.4790,0.00659951
3681.4434,0.00641966
3682.4075,0.00640193
3683.3718,0.00654502
3684.3359,0.00686149
3685.3003,0.0073665
3686.2644,0.00805064
3687.2288,0.00881852
3688.1929,0.00940679
3689.1572,0.00943775
3690.1213,0.00878462
3691.0857,0.00780974
3692.0498,0.00698837
3693.0142,0.00653452
3693.9783,0.00642757
3694.9426,0.0065517
3695.9067,0.00678085
3696.8711,0.00702032
3697.8352,0.00722179
3698.7996,0.00736978
3699.7637,0.00744862
3700.7280,0.00741959
3701.6921,0.0072429
3702.6565,0.00693876
3703.6206,0.00661373
3704.5850,0.00640721
3705.5491,0.00642303
3706.5134,0.00670847
3707.4775,0.00725928
3708.4419,0.0080035
3709.4060,0.00874585
3710.3704,0.00914576
3711.3345,0.00891977
3712.2988,0.00817994
3713.2629,0.00734875
3714.2273,0.00675253
3715.1914,0.00649046
3716.1558,0.00653473
3717.1199,0.00681543
3718.0842,0.00724662
3719.0483,0.00773349
3720.0127,0.00819143
3720.9768,0.0085763
3721.9412,0.00889219
3722.9053,0.00915409
3723.8696,0.00933642
3724.8337,0.00936863
3725.7981,0.0092003
3726.7622,0.0088743
3727.7266,0.00852398
3728.6907,0.00830748
3729.6550,0.00835581
3730.6191,0.00875868
3731.5835,0.00955397
3732.5476,0.0106774
3733.5120,0.0118618
3734.4761,0.0126085
3735.4404,0.0125005
3736.4045,0.0116766
3737.3689,0.0106896
3738.3330,0.00995823
3739.2974,0.00959899
3740.2615,0.00955957
3741.2258,0.00972939
3742.1899,0.00996264
3743.1543,0.0100753
3744.1184,0.0099189
3745.0828,0.00954727
3746.0469,0.00921804
3747.0112,0.0091429
3747.9753,0.00934097
3748.9397,0.00965712
3749.9038,0.00978847
3750.8682,0.00943069
3751.8323,0.00864529
3752.7966,0.00787917
3753.7607,0.00747133
3754.7251,0.00745875
3755.6892,0.00771455
3756.6536,0.00804487
3757.6177,0.00822324
3758.5820,0.00807712
3759.5461,0.00762918
3760.5105,0.00710957
3761.4746,0.00677233
3762.4390,0.00673626
3763.4031,0.00697572
3764.3674,0.00737926
3765.3315,0.00780507
3766.2959,0.00812626
3767.2600,0.00826234
3768.2244,0.00818287
3769.1885,0.00789255
3770.1528,0.00743043
3771.1169,0.00688487
3772.0813,0.00638158
3773.0454,0.00603374
3774.0098,0.00590113
3774.9739,0.00598606
3775.9382,0.00624532
3776.9023,0.00659638
3777.8667,0.00692566
3778.8308,0.00712774
3779.7952,0.00717026
3780.7593,0.00711203
3781.7236,0.00704125
3782.6877,0.0070078
3783.6521,0.00700706
3784.6162,0.0070014
3785.5806,0.00695277
3786.5447,0.00684954
3787.5090,0.00671413
3788.4731,0.00658952
3789.4375,0.00651841
3790.4016,0.00652855
3791.3660,0.00662749
3792.3301,0.00680339
3793.2944,0.00702906
3794.2585,0.00726878
3795.2229,0.00748978
3796.1870,0.00767426
3797.1514,0.00781993
3798.1155,0.00792284
3799.0798,0.00795721
3800.0439,0.00788192
3801.0083,0.00769303
3801.9724,0.00747893
3802.9368,0.00737495
3803.9009,0.00744061
3804.8652,0.00760546
3805.8293,0.00770627
3806.7937,0.00757331
3807.7578,0.00716294
3808.7222,0.00663345
3809.6863,0.0062268
3810.6506,0.00609174
3811.6147,0.00624586
3812.5791,0.00662635
3813.5432,0.00712366
3814.5076,0.007594
3815.4717,0.00790666
3816.4360,0.00803046
3817.4001,0.00804656
3818.3645,0.00804424
3819.3286,0.0080316
3820.2930,0.00795126
3821.2571,0.0077757
3822.2214,0.00757652
3823.1855,0.00746196
3824.1499,0.00747253
3825.1140,0.00756889
3826.0784,0.00768052
3827.0425,0.00775154
3828.0068,0.00776816
3828.9709,0.00776191
3829.9353,0.00778552
3830.8994,0.00787916
3831.8638,0.00805347
3832.8279,0.00829762
3833.7922,0.00859845
3834.7563,0.00894958
3835.7207,0.00933764
3836.6848,0.00971022
3837.6492,0.00995709
3838.6133,0.00995632
3839.5776,0.0096763
3840.5417,0.0092099
3841.5061,0.00869196
3842.4702,0.00821953
3843.4346,0.00784509
3844.3987,0.0076022
3845.3630,0.0075198
3846.3271,0.00762003
3847.2915,0.00791412
3848.2556,0.00840495
3849.2200,0.00908924
3850.1841,0.0099416
3851.1484,0.0108505
3852.1125,0.0114935
3853.0769,0.0113623
3854.0410,0.0103572
3855.0054,0.00913051
3855.9697,0.00825796
3856.9338,0.00783052
3857.8982,0.00775239
3858.8623,0.0079398
3859.8267,0.00833912
3860.7908,0.00888371
3861.7551,0.00944604
3862.7192,0.00983845
3863.6836,0.0099179
3864.6477,0.00972077
3865.6121,0.00944233
3866.5762,0.00927915
3867.5405,0.00932095
3868.5046,0.00953608
3869.4690,0.00979249
3870.4331,0.0099069
3871.3975,0.00974457
3872.3616,0.00931655
3873.3259,0.00877228
3874.2900,0.00829879
3875.2544,0.0080336
3876.2185,0.0080386
3877.1829,0.00830786
3878.1470,0.00877671
3879.1113,0.00932781
3880.0754,0.00981719
3881.0398,0.0101339
3882.0039,0.0102469
3882.9683,0.0101794
3883.9324,0.00994995
3884.8967,0.009572
3885.8608,0.00911309
3886.8252,0.0087176
3887.7893,0.00853639
3888.7537,0.00863473
3889.7178,0.00895086
3890.6821,0.00930172
3891.6462,0.0094563
3892.6106,0.00930513
3893.5747,0.00897304
3894.5391,0.00870108
3895.5032,0.00866252
3896.4675,0.00891085
3897.4316,0.00941155
3898.3960,0.0100711
3899.3601,0.0107586
3900.3245,0.0113398
3901.2886,0.0117052
3902.2529,0.0117619
3903.2170,0.0114347
3904.1814,0.0107376
3905.1455,0.00983238
3906.1099,0.00895349
3907.0740,0.00827204
3908.0383,0.00784329
3909.0024,0.00764128
3909.9668,0.0076125
3910.9309,0.00771549
3911.8953,0.0079388
3912.8594,0.00829248
3913.8237,0.00877398
3914.7878,0.00932467
3915.7522,0.00980688
3916.7163,0.0100433
3917.6807,0.00993708
3918.6448,0.00958469
3919.6091,0.00923481
3920.5732,0.00911406
3921.5376,0.00929036
3922.5017,0.00964908
3923.4661,0.0099564
3924.4302,0.00999499
3925.3945,0.0097207
3926.3586,0.00930258
3927.3230,0.00899232
3928.2871,0.00895669
3929.2515,0.00919618
3930.2156,0.00955123
3931.1799,0.00977886
3932.1440,0.00969639
3933.1084,0.00930911
3934.0725,0.00879237
3935.0369,0.00835287
3936.0010,0.00812032
3936.9653,0.00813135
3937.9294,0.00835888
3938.8938,0.00873701
3939.8579,0.009169
3940.8223,0.00953521
3941.7864,0.00972765
3942.7507,0.00971303
3943.7148,0.00957199
3944.6792,0.00945608
3945.6433,0.00948628
3946.6077,0.00967281
3947.5718,0.00990129
3948.5361,0.00999047
3949.5002,0.00980626
3950.4646,0.00936452
3951.4287,0.00882641
3952.3931,0.00838695
3953.3572,0.0081644
3954.3215,0.00816489
3955.2856,0.00831256
3956.2500,0.0085064
3957.2141,0.00866964
3958.1785,0.0087678
3959.1426,0.00879494
3960.1069,0.0087528
3961.0710,0.00864692
3962.0354,0.00849958
3962.9995,0.00835795
3963.9639,0.0082793
3964.9280,0.00830141
3965.8923,0.00842246
3966.8564,0.00860512
3967.8208,0.00879975
3968.7849,0.00896986
3969.7493,0.00910254
3970.7134,0.00919838
3971.6777,0.00925252
3972.6418,0.00924663
3973.6062,0.00916116
3974.5703,0.00899774
3975.5347,0.00879096
3976.4988,0.00859581
3977.4631,0.00845872
3978.4272,0.00839412
3979.3916,0.00838257
3980.3557,0.00838825
3981.3201,0.00838123
3982.2842,0.00835081
3983.2485,0.00830401
3984.2126,0.00825416
3985.1770,0.0082097
3986.1411,0.00817078
3987.1055,0.00813308
3988.0696,0.00809396
3989.0339,0.0080566
3989.9980,0.00803057
3990.9624,0.00802883
3991.9265,0.00806214
3992.8909,0.00813215
3993.8550,0.00822656
3994.8193,0.00831991
3995.7834,0.00838212
3996.7478,0.00839178
3997.7119,0.00834672
3998.6763,0.00826515
3999.6404,0.00817701
4000.6047,0.00809572

##### Extended Information
[Rg]
,PTSA_KBr
Rg
,Nozaki
,matsulab
,Hw

[f[^]
,2024/01/19 16:43

f[^^Cv,uf[^
,Wavenumber [cm-1]
c,Abs
X^[g,399.193 cm-1
Gh,4000.6 cm-1
f[^u,0.964233 cm-1
f[^,3736    

[]
@,FT/IR-6300typeA
VA,A005961024

,2024/01/19 16:37

,W
o,TGS
Z,256
,4 cm-1
[tBO,On
A|_C[[V,Cosine
QC,Auto (16)
Ap[`[,Auto (7.1 mm)
XLXs[h,Auto (2 mm/sec)
tB^,Auto (10000 Hz)

