TITLE,TT-(TII-CHO)2_KBr
DATA TYPE,INFRARED SPECTRUM
ORIGIN,JASCO
OWNER,matsulab
DATE,24/01/19
TIME,16:26:23
SPECTROMETER/DATA SYSTEM,
LOCALE,1041
RESOLUTION,
DELTAX,0.964233
XUNITS,1/CM
YUNITS,ABSORBANCE
FIRSTX,  399.1927
LASTX, 4000.6047
NPOINTS,    3736
FIRSTY,     0.05741
MAXY,     0.11824
MINY,     0.00100
XYDATA
399.1927,0.0574121
400.1569,0.0344544
401.1211,0.0164751
402.0854,0.00603854
403.0496,0.00178801
404.0138,0.001
404.9781,0.00121714
405.9423,0.00129487
406.9065,0.00166389
407.8708,0.00354098
408.8350,0.00760462
409.7992,0.0131478
410.7635,0.018301
411.7277,0.0211862
412.6919,0.0211603
413.6562,0.0191035
414.6204,0.0166584
415.5846,0.015309
416.5489,0.0158463
417.5131,0.0179855
418.4773,0.0200921
419.4416,0.0201306
420.4058,0.01774
421.3700,0.0142577
422.3343,0.0109414
423.2985,0.00832278
424.2627,0.00660258
425.2270,0.00601774
426.1912,0.00683806
427.1554,0.00909836
428.1197,0.0123666
429.0839,0.0157739
430.0481,0.018311
431.0124,0.0192606
431.9766,0.0185512
432.9408,0.0167868
433.9051,0.0148911
434.8693,0.0135975
435.8335,0.0131346
436.7978,0.0132989
437.7620,0.0137977
438.7262,0.0145313
439.6905,0.0155983
440.6547,0.0170794
441.6189,0.0187923
442.5832,0.0202148
443.5474,0.0206869
444.5116,0.019795
445.4759,0.0176291
446.4401,0.0147133
447.4043,0.0117437
448.3686,0.00936652
449.3328,0.00805764
450.2970,0.00802753
451.2613,0.00912511
452.2255,0.0108331
453.1897,0.0124541
454.1540,0.0134273
455.1182,0.0135979
456.0824,0.013307
457.0467,0.0132342
458.0109,0.0139517
458.9751,0.0154255
459.9394,0.0170092
460.9036,0.0180037
461.8678,0.018145
462.8321,0.0176481
463.7963,0.0169824
464.7605,0.0165926
465.7248,0.0166714
466.6890,0.0170924
467.6532,0.0175536
468.6175,0.0178044
469.5817,0.0177678
470.5459,0.0175051
471.5102,0.0170978
472.4744,0.0165642
473.4386,0.0158851
474.4029,0.0150919
475.3671,0.0142913
476.3313,0.0135855
477.2956,0.0129769
478.2598,0.012346
479.2240,0.0115294
480.1883,0.0104562
481.1525,0.00925271
482.1167,0.00822907
483.0810,0.00773602
484.0452,0.00796426
485.0094,0.00882329
485.9737,0.010008
486.9379,0.011197
487.9021,0.0121982
488.8664,0.0129453
489.8306,0.0134178
490.7948,0.0136008
491.7591,0.0135322
492.7233,0.0133739
493.6875,0.0133964
494.6518,0.0138393
495.6160,0.0147563
496.5802,0.0159804
497.5445,0.0172399
498.5087,0.0183362
499.4729,0.0192645
500.4372,0.0201961
501.4014,0.0213064
502.3656,0.0225412
503.3299,0.0235164
504.2941,0.0236851
505.2583,0.0226563
506.2226,0.0204274
507.1868,0.0174088
508.1510,0.0142643
509.1153,0.0116486
510.0795,0.00996213
511.0437,0.00925258
512.0080,0.00930366
512.9722,0.00981615
513.9365,0.0105518
514.9007,0.0113769
515.8649,0.0122202
516.8292,0.0130001
517.7934,0.0135869
518.7576,0.0138448
519.7219,0.0137203
520.6861,0.0132781
521.6503,0.0126497
522.6146,0.011951
523.5788,0.0112316
524.5430,0.0104728
525.5073,0.00963157
526.4715,0.00871161
527.4357,0.00780841
528.4000,0.00707929
529.3642,0.0066598
530.3284,0.00659159
531.2927,0.00679987
532.2569,0.00712402
533.2211,0.00739099
534.1854,0.00750044
535.1496,0.00747014
536.1138,0.0074079
537.0781,0.00743064
538.0423,0.0075908
539.0065,0.00785766
539.9708,0.00815459
540.9350,0.00841318
541.8992,0.00860182
542.8635,0.00871584
543.8277,0.00874817
544.7919,0.00867069
545.7562,0.00844373
546.7204,0.00804757
547.6846,0.00751288
548.6489,0.00692776
549.6131,0.00641486
550.5773,0.00608921
551.5416,0.00601492
552.5058,0.0061778
553.4700,0.00648625
554.4343,0.00680526
555.3985,0.00701508
556.3627,0.00706774
557.3270,0.00700557
558.2912,0.00692329
559.2554,0.00689531
560.2197,0.00692065
561.1839,0.00692929
562.1481,0.00684781
563.1124,0.00667289
564.0766,0.00648892
565.0408,0.00640828
566.0051,0.00647641
566.9693,0.00661326
567.9335,0.00664157
568.8978,0.00639445
569.8620,0.00583008
570.8262,0.00506503
571.7905,0.00430755
572.7547,0.00375681
573.7189,0.00353892
574.6832,0.00369476
575.6474,0.00419526
576.6116,0.00495904
577.5759,0.00586573
578.5401,0.00677185
579.5043,0.00753827
580.4686,0.00806778
581.4328,0.00833832
582.3970,0.0084095
583.3613,0.008389
584.3255,0.00837267
585.2897,0.0083965
586.2540,0.00843293
587.2182,0.0084298
588.1824,0.0083604
589.1467,0.008251
590.1109,0.00817132
591.0751,0.00819517
592.0394,0.0083535
593.0036,0.00861002
593.9678,0.00887781
594.9321,0.00906485
595.8963,0.00911613
596.8605,0.00903112
597.8248,0.00885624
598.7890,0.00866015
599.7532,0.00850074
600.7175,0.00839832
601.6817,0.00833202
602.6459,0.00826311
603.6102,0.00816917
604.5744,0.00806452
605.5386,0.00799272
606.5029,0.00799643
607.4671,0.00808672
608.4313,0.00823554
609.3956,0.00839785
610.3598,0.00854569
611.3240,0.00868516
612.2883,0.00883889
613.2525,0.00900518
614.2167,0.00912564
615.1810,0.00909058
616.1452,0.00879262
617.1094,0.00820693
618.0737,0.00744065
619.0379,0.00669531
620.0021,0.00615977
620.9664,0.00591881
621.9306,0.0059341
622.8948,0.00608499
623.8591,0.00623347
624.8233,0.00628813
625.7875,0.00624556
626.7518,0.00618813
627.7160,0.00623789
628.6802,0.00649515
629.6445,0.00699561
630.6087,0.00770142
631.5729,0.00852048
632.5372,0.0093384
633.5014,0.0100472
634.4656,0.0105626
635.4299,0.0108317
636.3941,0.0108389
637.3583,0.0106116
638.3226,0.010221
639.2868,0.00976873
640.2510,0.00935647
641.2153,0.00905029
642.1795,0.00885802
643.1437,0.00873604
644.1080,0.00862152
645.0722,0.00846701
646.0364,0.00825365
647.0007,0.00797882
647.9649,0.00763619
648.9291,0.00721195
649.8934,0.00670572
650.8576,0.0061577
651.8218,0.00565345
652.7861,0.00529642
653.7503,0.00516441
654.7145,0.00527383
655.6788,0.00557239
656.6430,0.00597004
657.6072,0.00639112
658.5715,0.0068074
659.5357,0.00722526
660.4999,0.00764086
661.4642,0.00801029
662.4284,0.00827155
663.3926,0.00839452
664.3569,0.00840851
665.3211,0.00840209
666.2853,0.00851939
667.2496,0.00892625
668.2138,0.00962992
669.1780,0.0102566
670.1423,0.0103948
671.1065,0.0100741
672.0707,0.00953258
673.0350,0.00893183
673.9992,0.00834244
674.9634,0.00779777
675.9277,0.00732725
676.8919,0.00696316
677.8561,0.0067305
678.8204,0.00663577
679.7846,0.00666461
680.7488,0.00678676
681.7131,0.00696541
682.6773,0.00716974
683.6415,0.00738469
684.6058,0.00761091
685.5700,0.00785512
686.5342,0.00811808
687.4985,0.00838582
688.4627,0.00862631
689.4269,0.00879191
690.3912,0.00882882
691.3554,0.00869298
692.3196,0.00836874
693.2839,0.00788311
694.2481,0.00730899
695.2123,0.00675345
696.1766,0.00633139
697.1408,0.00612989
698.1050,0.0061764
699.0693,0.00642698
700.0335,0.00678288
700.9977,0.00712775
701.9620,0.00736676
702.9262,0.00745074
703.8904,0.00737988
704.8547,0.00719471
705.8189,0.00696544
706.7831,0.00678147
707.7474,0.00673181
708.7116,0.00687142
709.6758,0.00719007
710.6401,0.0076164
711.6043,0.00807655
712.5685,0.00858185
713.5328,0.00927413
714.4970,0.010362
715.4612,0.0119584
716.4255,0.0139196
717.3897,0.015803
718.3539,0.0170104
719.3182,0.0170873
720.2824,0.0160191
721.2466,0.0142805
722.2109,0.0125492
723.1751,0.0113044
724.1393,0.0106247
725.1036,0.0102748
726.0678,0.00994202
727.0320,0.00944144
727.9963,0.00878061
728.9605,0.0080807
729.9247,0.0074506
730.8890,0.00692413
731.8532,0.00649076
732.8174,0.00615992
733.7817,0.00598294
734.7459,0.00601302
735.7101,0.00624779
736.6744,0.00661187
737.6386,0.0069944
738.6028,0.00730702
739.5671,0.00751661
740.5313,0.00763599
741.4955,0.00769307
742.4598,0.00770914
743.4240,0.00769695
744.3882,0.00766467
745.3525,0.00761068
746.3167,0.00751552
747.2809,0.00735296
748.2452,0.00713042
749.2094,0.00693463
750.1736,0.00693657
751.1379,0.00732573
752.1021,0.00819428
753.0663,0.00943808
754.0306,0.010747
754.9948,0.0117112
755.9590,0.0119977
756.9233,0.0115016
757.8875,0.0103858
758.8517,0.00899328
759.8160,0.00769017
760.7802,0.00673008
761.7444,0.00619737
762.7087,0.00603336
763.6729,0.00610712
764.6371,0.00628561
765.6014,0.00647623
766.5656,0.00663827
767.5298,0.00677323
768.4941,0.00690502
769.4583,0.00705751
770.4225,0.00723585
771.3868,0.00741802
772.3510,0.00756046
773.3152,0.00761468
774.2795,0.00754595
775.2437,0.00734586
776.2079,0.00703617
777.1722,0.00666513
778.1364,0.00629757
779.1006,0.00599869
780.0649,0.00581603
781.0291,0.00577143
781.9933,0.0058762
782.9576,0.00616776
783.9218,0.00674252
784.8860,0.00774663
785.8503,0.0093039
786.8145,0.0114051
787.7787,0.013824
788.7430,0.0161315
789.7072,0.0178297
790.6714,0.0185557
791.6357,0.018244
792.5999,0.0171514
793.5641,0.0157276
794.5284,0.0144096
795.4926,0.0134542
796.4568,0.0128854
797.4211,0.0125593
798.3853,0.0122875
799.3495,0.0119438
800.3138,0.0115065
801.2780,0.0110374
802.2422,0.0106276
803.2065,0.0103498
804.1707,0.0102333
805.1349,0.0102633
806.0992,0.0103974
807.0634,0.01059
808.0276,0.0108192
808.9919,0.0111045
809.9561,0.0115035
810.9203,0.0120805
811.8846,0.0128573
812.8488,0.01377
813.8130,0.0146621
814.7773,0.0153269
815.7415,0.0155865
816.7057,0.0153687
817.6700,0.0147409
818.6342,0.0138803
819.5984,0.012998
820.5627,0.0122563
821.5269,0.0117198
822.4911,0.0113579
823.4554,0.0110911
824.4196,0.0108514
825.3839,0.0106283
826.3481,0.0104786
827.3123,0.010499
828.2766,0.0107727
829.2408,0.0113134
830.2050,0.01203
831.1693,0.012732
832.1335,0.0131805
833.0977,0.0131704
834.0620,0.012613
835.0262,0.0115761
835.9904,0.0102613
836.9547,0.00892482
837.9189,0.0077812
838.8831,0.00693814
839.8474,0.00638911
840.8116,0.0060585
841.7758,0.00586442
842.7401,0.00576066
843.7043,0.00573981
844.6685,0.00580883
845.6328,0.00596394
846.5970,0.00618336
847.5612,0.0064362
848.5255,0.00669144
849.4897,0.00691606
850.4539,0.00706785
851.4182,0.00709945
852.3824,0.00698179
853.3466,0.00673451
854.3109,0.00643675
855.2751,0.00619988
856.2393,0.00611142
857.2036,0.00618461
858.1678,0.00634911
859.1320,0.00649288
860.0963,0.00652988
861.0605,0.00645045
862.0247,0.00632305
862.9890,0.00624925
863.9532,0.00630343
864.9174,0.006496
865.8817,0.00677927
866.8459,0.00708601
867.8101,0.00737152
868.7744,0.00763222
869.7386,0.00789225
870.7028,0.00817123
871.6671,0.00845643
872.6313,0.00869807
873.5955,0.0088301
874.5598,0.00880277
875.5240,0.00860657
876.4882,0.00827396
877.4525,0.00786029
878.4167,0.00741839
879.3809,0.00698394
880.3452,0.00657888
881.3094,0.00622513
882.2736,0.00595259
883.2379,0.00579062
884.2021,0.00574739
885.1663,0.0057941
886.1306,0.00587048
887.0948,0.00591325
888.0590,0.00589108
889.0233,0.00582243
889.9875,0.00576291
890.9517,0.00576945
891.9160,0.00586457
892.8802,0.00602334
893.8444,0.00618969
894.8087,0.00630916
895.7729,0.00635661
896.7371,0.00634357
897.7014,0.00630468
898.6656,0.0062755
899.6298,0.00627589
900.5941,0.00630637
901.5583,0.0063548
902.5225,0.00640597
903.4868,0.00644772
904.4510,0.00647234
905.4152,0.0064758
906.3795,0.00645775
907.3437,0.00642282
908.3079,0.00638148
909.2722,0.00634766
910.2364,0.00633304
911.2006,0.00634042
912.1649,0.00636076
913.1291,0.00637713
914.0933,0.00637466
915.0576,0.00635089
916.0218,0.00631956
916.9860,0.00630416
917.9503,0.00632425
918.9145,0.00638327
919.8787,0.00646576
920.8430,0.00654598
921.8072,0.00660162
922.7714,0.00662358
923.7357,0.00661622
924.6999,0.00659071
925.6641,0.00655853
926.6284,0.00653012
927.5926,0.00651712
928.5568,0.00653213
929.5211,0.00658246
930.4853,0.00666126
931.4495,0.00674448
932.4138,0.00679916
933.3780,0.00679967
934.3422,0.00674132
935.3065,0.00664169
936.2707,0.00652961
937.2349,0.00643075
938.1992,0.00636056
939.1634,0.00632759
940.1276,0.00634065
941.0919,0.00640995
942.0561,0.0065386
943.0203,0.00671114
943.9846,0.00689016
944.9488,0.00702733
945.9130,0.00708436
946.8773,0.00705171
947.8415,0.00695379
948.8057,0.00683808
949.7700,0.00675431
950.7342,0.0067343
951.6984,0.00678085
952.6627,0.00686904
953.6269,0.00695835
954.5911,0.00701099
955.5554,0.00700917
956.5196,0.0069634
957.4838,0.00690659
958.4481,0.00687597
959.4123,0.0068927
960.3765,0.00695187
961.3408,0.00702937
962.3050,0.00710038
963.2692,0.00715565
964.2335,0.00720354
965.1977,0.00725746
966.1619,0.0073203
967.1262,0.00737965
968.0904,0.00741875
969.0546,0.00743374
970.0189,0.00744252
970.9831,0.00747665
971.9473,0.00756128
972.9116,0.00769801
973.8758,0.00786311
974.8400,0.00802201
975.8043,0.00814932
976.7685,0.0082409
977.7327,0.00831172
978.6970,0.00838341
979.6612,0.00847103
980.6254,0.00857687
981.5897,0.00869253
982.5539,0.00880554
983.5181,0.00890556
984.4824,0.00898762
985.4466,0.00905243
986.4108,0.00910503
987.3751,0.00915241
988.3393,0.0092004
989.3035,0.00925061
990.2678,0.00929901
991.2320,0.00933763
992.1962,0.00935948
993.1605,0.00936415
994.1247,0.00936037
995.0889,0.00936275
996.0532,0.00938366
997.0174,0.00942523
997.9816,0.00947755
998.9459,0.00952501
999.9101,0.00955685
1000.8743,0.00957362
1001.8386,0.00958372
1002.8028,0.00959231
1003.7670,0.00959225
1004.7313,0.00956666
1005.6955,0.00950386
1006.6597,0.00941396
1007.6240,0.00933253
1008.5882,0.00930472
1009.5524,0.00935861
1010.5167,0.00948645
1011.4809,0.00964875
1012.4451,0.00979982
1013.4094,0.00991721
1014.3736,0.0100142
1015.3378,0.0101269
1016.3021,0.0102855
1017.2663,0.0104912
1018.2305,0.0107137
1019.1948,0.0109092
1020.1590,0.011046
1021.1232,0.0111201
1022.0875,0.0111544
1023.0517,0.011184
1024.0160,0.0112384
1024.9802,0.0113298
1025.9445,0.0114516
1026.9087,0.011584
1027.8729,0.0117056
1028.8372,0.0118027
1029.8014,0.011875
1030.7656,0.0119337
1031.7299,0.0119938
1032.6941,0.012064
1033.6583,0.0121416
1034.6226,0.0122154
1035.5868,0.0122748
1036.5510,0.0123184
1037.5153,0.0123573
1038.4795,0.0124107
1039.4437,0.0124987
1040.4080,0.0126361
1041.3722,0.0128286
1042.3364,0.0130728
1043.3007,0.0133551
1044.2649,0.0136525
1045.2291,0.013936
1046.1934,0.0141793
1047.1576,0.01437
1048.1218,0.0145162
1049.0861,0.0146455
1050.0503,0.0147939
1051.0145,0.014992
1051.9788,0.0152535
1052.9430,0.0155717
1053.9072,0.0159235
1054.8715,0.01628
1055.8357,0.0166181
1056.7999,0.0169305
1057.7642,0.01723
1058.7284,0.0175451
1059.6926,0.0179085
1060.6569,0.018342
1061.6211,0.0188456
1062.5853,0.0193966
1063.5496,0.0199592
1064.5138,0.0205002
1065.4780,0.0210032
1066.4423,0.021474
1067.4065,0.0219355
1068.3707,0.0224139
1069.3350,0.0229251
1070.2992,0.0234689
1071.2634,0.0240353
1072.2277,0.0246205
1073.1919,0.0252397
1074.1561,0.0259241
1075.1204,0.0266979
1076.0846,0.0275493
1077.0488,0.0284179
1078.0131,0.0292166
1078.9773,0.0298825
1079.9415,0.0304261
1080.9058,0.0309435
1081.8700,0.0315789
1082.8342,0.0324571
1083.7985,0.0336264
1084.7627,0.0350472
1085.7269,0.0366301
1086.6912,0.0382964
1087.6554,0.0400234
1088.6196,0.041851
1089.5839,0.0438518
1090.5481,0.0460881
1091.5123,0.0485773
1092.4766,0.0512753
1093.4408,0.0540766
1094.4050,0.0568248
1095.3693,0.0593302
1096.3335,0.0613941
1097.2977,0.0628366
1098.2620,0.0635247
1099.2262,0.0633927
1100.1904,0.0624522
1101.1547,0.0607907
1102.1189,0.0585567
1103.0831,0.0559343
1104.0474,0.0531087
1105.0116,0.0502338
1105.9758,0.047411
1106.9401,0.0446865
1107.9043,0.0420652
1108.8685,0.0395311
1109.8328,0.0370637
1110.7970,0.0346485
1111.7612,0.0322809
1112.7255,0.0299702
1113.6897,0.0277421
1114.6539,0.0256363
1115.6182,0.0236972
1116.5824,0.0219607
1117.5466,0.0204454
1118.5109,0.0191512
1119.4751,0.0180665
1120.4393,0.0171748
1121.4036,0.0164558
1122.3678,0.0158825
1123.3320,0.0154185
1124.2963,0.0150235
1125.2605,0.0146648
1126.2247,0.014328
1127.1890,0.01402
1128.1532,0.0137596
1129.1174,0.013562
1130.0817,0.0134248
1131.0459,0.0133256
1132.0101,0.01323
1132.9744,0.013108
1133.9386,0.0129482
1134.9028,0.0127624
1135.8671,0.0125784
1136.8313,0.0124244
1137.7955,0.012312
1138.7598,0.0122298
1139.7240,0.0121505
1140.6882,0.0120487
1141.6525,0.0119184
1142.6167,0.0117808
1143.5809,0.0116744
1144.5452,0.0116361
1145.5094,0.0116807
1146.4736,0.0117936
1147.4379,0.0119377
1148.4021,0.0120709
1149.3663,0.0121623
1150.3306,0.0121992
1151.2948,0.0121839
1152.2590,0.0121243
1153.2233,0.0120275
1154.1875,0.0119
1155.1517,0.0117523
1156.1160,0.0116017
1157.0802,0.0114694
1158.0444,0.0113717
1159.0087,0.0113133
1159.9729,0.0112861
1160.9371,0.0112785
1161.9014,0.011286
1162.8656,0.0113168
1163.8298,0.0113867
1164.7941,0.0115078
1165.7583,0.0116791
1166.7225,0.0118876
1167.6868,0.0121176
1168.6510,0.0123606
1169.6152,0.0126164
1170.5795,0.0128836
1171.5437,0.0131478
1172.5079,0.0133775
1173.4722,0.0135346
1174.4364,0.0135929
1175.4006,0.0135549
1176.3649,0.0134523
1177.3291,0.0133342
1178.2933,0.013247
1179.2576,0.0132207
1180.2218,0.0132645
1181.1860,0.0133689
1182.1503,0.0135112
1183.1145,0.0136581
1184.0787,0.0137695
1185.0430,0.0138059
1186.0072,0.0137406
1186.9714,0.0135717
1187.9357,0.0133271
1188.8999,0.013055
1189.8641,0.0128057
1190.8284,0.0126125
1191.7926,0.0124839
1192.7568,0.0124083
1193.7211,0.0123681
1194.6853,0.0123522
1195.6495,0.0123614
1196.6138,0.0124051
1197.5780,0.0124954
1198.5422,0.0126428
1199.5065,0.0128544
1200.4707,0.0131355
1201.4349,0.0134903
1202.3992,0.0139246
1203.3634,0.0144505
1204.3276,0.0150918
1205.2919,0.0158872
1206.2561,0.0168861
1207.2203,0.018136
1208.1846,0.0196706
1209.1488,0.0215031
1210.1130,0.0236302
1211.0773,0.0260405
1212.0415,0.0287166
1213.0057,0.0316246
1213.9700,0.0346927
1214.9342,0.0377938
1215.8984,0.0407462
1216.8627,0.0433405
1217.8269,0.0453874
1218.7911,0.0467652
1219.7554,0.0474442
1220.7196,0.0474739
1221.6838,0.0469413
1222.6481,0.0459262
1223.6123,0.0444788
1224.5765,0.0426307
1225.5408,0.0404265
1226.5050,0.0379543
1227.4692,0.0353543
1228.4335,0.0328006
1229.3977,0.0304682
1230.3619,0.0284995
1231.3262,0.0269857
1232.2904,0.0259661
1233.2546,0.0254411
1234.2189,0.0253882
1235.1831,0.0257717
1236.1473,0.0265403
1237.1116,0.0276188
1238.0758,0.0289034
1239.0400,0.0302689
1240.0043,0.031585
1240.9685,0.032733
1241.9327,0.0336134
1242.8970,0.0341426
1243.8612,0.0342481
1244.8254,0.0338716
1245.7897,0.0329866
1246.7539,0.0316215
1247.7181,0.029875
1248.6824,0.0279089
1249.6466,0.025916
1250.6108,0.0240746
1251.5751,0.0225071
1252.5393,0.0212615
1253.5035,0.0203172
1254.4678,0.0196107
1255.4320,0.0190656
1256.3962,0.0186149
1257.3605,0.0182122
1258.3247,0.0178341
1259.2889,0.0174808
1260.2532,0.0171745
1261.2174,0.0169549
1262.1816,0.0168671
1263.1459,0.0169461
1264.1101,0.0172035
1265.0743,0.0176235
1266.0386,0.0181689
1267.0028,0.0187951
1267.9670,0.0194672
1268.9313,0.0201717
1269.8955,0.0209195
1270.8597,0.0217396
1271.8240,0.0226684
1272.7882,0.0237376
1273.7524,0.0249676
1274.7167,0.026365
1275.6809,0.0279221
1276.6451,0.0296179
1277.6094,0.0314172
1278.5736,0.0332716
1279.5378,0.0351222
1280.5021,0.0369053
1281.4663,0.0385607
1282.4305,0.0400373
1283.3948,0.0412964
1284.3590,0.042309
1285.3232,0.0430527
1286.2875,0.0435097
1287.2517,0.0436718
1288.2159,0.043551
1289.1802,0.0431908
1290.1444,0.042668
1291.1086,0.0420808
1292.0729,0.0415294
1293.0371,0.0410964
1294.0013,0.0408371
1294.9656,0.0407793
1295.9298,0.0409308
1296.8940,0.0412893
1297.8583,0.0418488
1298.8225,0.0425997
1299.7867,0.0435249
1300.7510,0.0445943
1301.7152,0.045766
1302.6794,0.0469922
1303.6437,0.0482285
1304.6079,0.0494415
1305.5721,0.0506145
1306.5364,0.0517491
1307.5006,0.0528641
1308.4648,0.0539839
1309.4291,0.0551197
1310.3933,0.0562475
1311.3575,0.057298
1312.3218,0.0581708
1313.2860,0.0587707
1314.2502,0.0590455
1315.2145,0.0589973
1316.1787,0.0586624
1317.1429,0.0580806
1318.1072,0.0572849
1319.0714,0.0563143
1320.0356,0.0552331
1320.9999,0.0541279
1321.9641,0.0530807
1322.9283,0.0521356
1323.8926,0.051281
1324.8568,0.0504524
1325.8210,0.0495496
1326.7853,0.0484617
1327.7495,0.0470932
1328.7137,0.0453836
1329.6780,0.043323
1330.6422,0.0409675
1331.6064,0.0384503
1332.5707,0.0359712
1333.5349,0.0337527
1334.4991,0.0319746
1335.4634,0.030717
1336.4276,0.0299233
1337.3918,0.0293902
1338.3561,0.0288145
1339.3203,0.0279342
1340.2845,0.0267016
1341.2488,0.0253106
1342.2130,0.0240343
1343.1772,0.0230533
1344.1415,0.0224054
1345.1057,0.0220236
1346.0699,0.0217963
1347.0342,0.0216194
1347.9984,0.021432
1348.9626,0.0212258
1349.9269,0.0210271
1350.8911,0.0208662
1351.8553,0.0207509
1352.8196,0.0206579
1353.7838,0.0205426
1354.7480,0.0203654
1355.7123,0.0201249
1356.6765,0.0198728
1357.6407,0.0196921
1358.6050,0.0196525
1359.5692,0.0197644
1360.5334,0.0199501
1361.4977,0.0200541
1362.4619,0.0199285
1363.4261,0.019557
1364.3904,0.0190797
1365.3546,0.0186785
1366.3188,0.0184643
1367.2831,0.0184531
1368.2473,0.0186011
1369.2115,0.018854
1370.1758,0.0191837
1371.1400,0.0195955
1372.1042,0.0201015
1373.0685,0.0206803
1374.0327,0.0212575
1374.9969,0.0217376
1375.9612,0.02207
1376.9254,0.0222728
1377.8896,0.0223898
1378.8539,0.0224409
1379.8181,0.0224189
1380.7823,0.0223243
1381.7466,0.0221966
1382.7108,0.0221048
1383.6750,0.0221005
1384.6393,0.0221705
1385.6035,0.0222219
1386.5677,0.022128
1387.5320,0.0218417
1388.4962,0.0214801
1389.4604,0.0212629
1390.4247,0.0213799
1391.3889,0.0219378
1392.3531,0.0229696
1393.3174,0.0244186
1394.2816,0.0260749
1395.2458,0.0275359
1396.2101,0.0283158
1397.1743,0.028095
1398.1385,0.026909
1399.1028,0.0251121
1400.0670,0.0231743
1401.0313,0.0214719
1401.9955,0.0201831
1402.9597,0.0192938
1403.9240,0.0186652
1404.8882,0.018126
1405.8524,0.0175673
1406.8167,0.0169881
1407.7809,0.0164488
1408.7451,0.0159892
1409.7094,0.0155931
1410.6736,0.01522
1411.6378,0.0148637
1412.6021,0.0145823
1413.5663,0.0144688
1414.5305,0.0145881
1415.4948,0.0149295
1416.4590,0.0153789
1417.4232,0.0157122
1418.3875,0.0156821
1419.3517,0.0152374
1420.3159,0.0146134
1421.2802,0.0141021
1422.2444,0.013833
1423.2086,0.0137829
1424.1729,0.0138742
1425.1371,0.0140481
1426.1013,0.0142981
1427.0656,0.0146661
1428.0298,0.0152082
1428.9940,0.0159476
1429.9583,0.0168402
1430.9225,0.017795
1431.8867,0.018748
1432.8510,0.0197155
1433.8152,0.0207723
1434.7794,0.021973
1435.7437,0.0232536
1436.7079,0.0244042
1437.6721,0.0252428
1438.6364,0.0258341
1439.6006,0.0264253
1440.5648,0.0272343
1441.5291,0.0283618
1442.4933,0.0298115
1443.4575,0.0315406
1444.4218,0.0335116
1445.3860,0.0357211
1446.3502,0.0381684
1447.3145,0.0407639
1448.2787,0.0432612
1449.2429,0.0453349
1450.2072,0.0467801
1451.1714,0.0476242
1452.1356,0.0480501
1453.0999,0.0482483
1454.0641,0.0482935
1455.0283,0.0480071
1455.9926,0.0468103
1456.9568,0.044043
1457.9210,0.0401807
1458.8853,0.0367425
1459.8495,0.0344483
1460.8137,0.033087
1461.7780,0.0323029
1462.7422,0.031854
1463.7064,0.0315597
1464.6707,0.0312289
1465.6349,0.0306947
1466.5991,0.0299178
1467.5634,0.0289792
1468.5276,0.0279625
1469.4918,0.0268833
1470.4561,0.0256844
1471.4203,0.0242655
1472.3845,0.0225749
1473.3488,0.0207613
1474.3130,0.019149
1475.2772,0.0179529
1476.2415,0.0171766
1477.2057,0.0167576
1478.1699,0.016662
1479.1342,0.0168847
1480.0984,0.017425
1481.0626,0.0182707
1482.0269,0.0193979
1482.9911,0.0207842
1483.9553,0.0224265
1484.9196,0.0243459
1485.8838,0.0265542
1486.8480,0.0289425
1487.8123,0.0310813
1488.7765,0.0321603
1489.7407,0.0315807
1490.7050,0.0297506
1491.6692,0.0276696
1492.6334,0.0259951
1493.5977,0.02489
1494.5619,0.024294
1495.5261,0.0241199
1496.4904,0.02433
1497.4546,0.0249324
1498.4188,0.025901
1499.3831,0.0271183
1500.3473,0.028438
1501.3115,0.029774
1502.2758,0.0311314
1503.2400,0.0326365
1504.2042,0.0346315
1505.1685,0.0378337
1506.1327,0.0432017
1507.0969,0.0503988
1508.0612,0.0563698
1509.0254,0.0591752
1509.9896,0.0600382
1510.9539,0.0604212
1511.9181,0.0609016
1512.8823,0.0614881
1513.8466,0.0619048
1514.8108,0.0617657
1515.7750,0.0607893
1516.7393,0.0589933
1517.7035,0.0566461
1518.6677,0.0539685
1519.6320,0.0509243
1520.5962,0.0473842
1521.5604,0.0435134
1522.5247,0.0398319
1523.4889,0.0367415
1524.4531,0.0341636
1525.4174,0.0317222
1526.3816,0.029166
1527.3458,0.0265892
1528.3101,0.0242967
1529.2743,0.0225199
1530.2385,0.0212681
1531.2028,0.0203531
1532.1670,0.0194965
1533.1312,0.0185001
1534.0955,0.0174064
1535.0597,0.0164362
1536.0239,0.015758
1536.9882,0.0154005
1537.9524,0.0153309
1538.9166,0.0155326
1539.8809,0.0159722
1540.8451,0.0164043
1541.8093,0.0163916
1542.7736,0.0158314
1543.7378,0.0149803
1544.7020,0.0140944
1545.6663,0.0133472
1546.6305,0.0128495
1547.5947,0.0126428
1548.5590,0.0126936
1549.5232,0.012911
1550.4874,0.0131862
1551.4517,0.0134398
1552.4159,0.0136575
1553.3801,0.0138856
1554.3444,0.0141925
1555.3086,0.0146337
1556.2728,0.0152227
1557.2371,0.0158451
1558.2013,0.0161095
1559.1655,0.0156236
1560.1298,0.0147181
1561.0940,0.0139539
1562.0582,0.0134712
1563.0225,0.0132043
1563.9867,0.013087
1564.9509,0.013087
1565.9152,0.0131982
1566.8794,0.0134352
1567.8436,0.0138235
1568.8079,0.0143706
1569.7721,0.0150303
1570.7363,0.015728
1571.7006,0.0164401
1572.6648,0.0172418
1573.6290,0.0183031
1574.5933,0.0198532
1575.5575,0.0220373
1576.5217,0.0246385
1577.4860,0.0270844
1578.4502,0.029011
1579.4144,0.0305256
1580.3787,0.0318773
1581.3429,0.0331704
1582.3071,0.0343114
1583.2714,0.0350833
1584.2356,0.0352879
1585.1998,0.0348655
1586.1641,0.0338916
1587.1283,0.0324838
1588.0925,0.0307392
1589.0568,0.0287445
1590.0210,0.0266058
1590.9852,0.0244446
1591.9495,0.022363
1592.9137,0.0204218
1593.8779,0.0186492
1594.8422,0.0170653
1595.8064,0.0156966
1596.7706,0.0145704
1597.7349,0.0137009
1598.6991,0.0130816
1599.6633,0.0126873
1600.6276,0.0124803
1601.5918,0.0124188
1602.5560,0.0124658
1603.5203,0.0125962
1604.4845,0.0127974
1605.4487,0.0130626
1606.4130,0.0133795
1607.3772,0.0137212
1608.3414,0.0140466
1609.3057,0.0143157
1610.2699,0.0145166
1611.2341,0.0146745
1612.1984,0.0148349
1613.1626,0.0150411
1614.1268,0.0153228
1615.0911,0.0156863
1616.0553,0.0160976
1617.0195,0.0164885
1617.9838,0.0168191
1618.9480,0.0171219
1619.9122,0.017464
1620.8765,0.0179036
1621.8407,0.0184704
1622.8049,0.0191454
1623.7692,0.019851
1624.7334,0.020503
1625.6976,0.0210959
1626.6619,0.0217179
1627.6261,0.0224736
1628.5903,0.0233948
1629.5546,0.0244159
1630.5188,0.0254433
1631.4830,0.0264568
1632.4473,0.0275757
1633.4115,0.0290865
1634.3757,0.0314005
1635.3400,0.0347335
1636.3042,0.0385372
1637.2684,0.0418101
1638.2327,0.0442731
1639.1969,0.0463411
1640.1611,0.0483911
1641.1254,0.0505312
1642.0896,0.0527268
1643.0538,0.0550018
1644.0181,0.05762
1644.9823,0.0611448
1645.9465,0.0660681
1646.9108,0.0718979
1647.8750,0.0770992
1648.8392,0.080661
1649.8035,0.0827236
1650.7677,0.0837149
1651.7319,0.0835981
1652.6962,0.0817318
1653.6604,0.0779925
1654.6246,0.0740746
1655.5889,0.0714404
1656.5531,0.0699721
1657.5173,0.0691481
1658.4816,0.0686377
1659.4458,0.0682185
1660.4100,0.0675937
1661.3743,0.0663367
1662.3385,0.0641336
1663.3027,0.0611583
1664.2670,0.0579627
1665.2312,0.0549493
1666.1954,0.0521211
1667.1597,0.0491928
1668.1239,0.0458379
1669.0881,0.042052
1670.0524,0.0384472
1671.0166,0.0359114
1671.9808,0.0348651
1672.9451,0.0351424
1673.9093,0.0363468
1674.8735,0.0379861
1675.8378,0.0394406
1676.8020,0.0401457
1677.7662,0.0399157
1678.7305,0.0389513
1679.6947,0.0375396
1680.6589,0.0357965
1681.6232,0.0335496
1682.5874,0.0303734
1683.5516,0.0260617
1684.5159,0.0214259
1685.4801,0.0177907
1686.4443,0.0155245
1687.4086,0.014151
1688.3728,0.013167
1689.3370,0.0123236
1690.3013,0.0115831
1691.2655,0.0110213
1692.2297,0.0107422
1693.1940,0.0108241
1694.1582,0.0112905
1695.1224,0.012084
1696.0867,0.0130354
1697.0509,0.0138681
1698.0151,0.0143055
1698.9794,0.0142523
1699.9436,0.0138649
1700.9078,0.0133946
1701.8721,0.0129814
1702.8363,0.0126074
1703.8005,0.0121694
1704.7648,0.0115654
1705.7290,0.0107674
1706.6932,0.00986333
1707.6575,0.00901839
1708.6217,0.00836827
1709.5859,0.00795766
1710.5502,0.00777031
1711.5144,0.00778583
1712.4786,0.00800422
1713.4429,0.00842734
1714.4071,0.00899974
1715.3713,0.00951766
1716.3356,0.00960594
1717.2998,0.00900742
1718.2640,0.00798617
1719.2283,0.0070572
1720.1925,0.00645663
1721.1567,0.00613392
1722.1210,0.00595473
1723.0852,0.00581131
1724.0494,0.00565961
1725.0137,0.00552517
1725.9779,0.00548004
1726.9421,0.00559689
1727.9064,0.00590952
1728.8706,0.0064018
1729.8348,0.00701714
1730.7991,0.00766312
1731.7633,0.0081973
1732.7275,0.00842874
1733.6918,0.00823113
1734.6560,0.00771705
1735.6202,0.00716201
1736.5845,0.00675153
1737.5487,0.00652623
1738.5129,0.00647144
1739.4772,0.00657372
1740.4414,0.00681654
1741.4056,0.0071515
1742.3699,0.00749563
1743.3341,0.00777456
1744.2983,0.00796797
1745.2626,0.00811427
1746.2268,0.008278
1747.1910,0.00849492
1748.1553,0.00870644
1749.1195,0.0087366
1750.0837,0.00840684
1751.0480,0.00773195
1752.0122,0.00693121
1752.9764,0.0062399
1753.9407,0.00578194
1754.9049,0.00557227
1755.8691,0.00555928
1756.8334,0.00566087
1757.7976,0.00579482
1758.7618,0.00590054
1759.7261,0.00594195
1760.6903,0.00589995
1761.6545,0.00577735
1762.6188,0.00561597
1763.5830,0.00549345
1764.5472,0.00548646
1765.5115,0.0056321
1766.4757,0.00591551
1767.4399,0.00627887
1768.4042,0.00663964
1769.3684,0.00691265
1770.3326,0.00703168
1771.2969,0.00696689
1772.2611,0.00673972
1773.2253,0.00642381
1774.1896,0.00611081
1775.1538,0.00586509
1776.1180,0.00571023
1777.0823,0.00564008
1778.0465,0.00563038
1779.0107,0.00564658
1779.9750,0.00565488
1780.9392,0.00563549
1781.9034,0.0055866
1782.8677,0.00551505
1783.8319,0.00542909
1784.7961,0.00534502
1785.7604,0.00529761
1786.7246,0.00533565
1787.6888,0.0055026
1788.6531,0.00581703
1789.6173,0.0062573
1790.5815,0.00674328
1791.5458,0.00713091
1792.5100,0.00727526
1793.4742,0.00715195
1794.4385,0.0068749
1795.4027,0.00657931
1796.3669,0.00634451
1797.3312,0.00620542
1798.2954,0.00617755
1799.2596,0.00625186
1800.2239,0.00637037
1801.1881,0.00642871
1802.1523,0.00633561
1803.1166,0.00607963
1804.0808,0.00573455
1805.0450,0.00541095
1806.0093,0.00520307
1806.9735,0.0051557
1807.9377,0.00525126
1808.9020,0.00541537
1809.8662,0.00554615
1810.8304,0.00556643
1811.7947,0.00546908
1812.7589,0.00531335
1813.7231,0.00517591
1814.6874,0.00510448
1815.6516,0.00510279
1816.6158,0.00514187
1817.5801,0.00518613
1818.5443,0.00522164
1819.5085,0.00526766
1820.4728,0.0053609
1821.4370,0.00552527
1822.4012,0.0057489
1823.3655,0.00598249
1824.3297,0.00616506
1825.2939,0.00626481
1826.2582,0.00629725
1827.2224,0.00629758
1828.1866,0.00627492
1829.1509,0.00619553
1830.1151,0.00601823
1831.0793,0.0057523
1832.0436,0.0054657
1833.0078,0.00523055
1833.9720,0.00507536
1834.9363,0.00498244
1835.9005,0.0049141
1836.8647,0.00484758
1837.8290,0.00480007
1838.7932,0.00482233
1839.7574,0.00496581
1840.7217,0.00525393
1841.6859,0.00566887
1842.6501,0.00614147
1843.6144,0.00655017
1844.5786,0.00676666
1845.5428,0.00674318
1846.5071,0.00653878
1847.4713,0.00624956
1848.4355,0.00594492
1849.3998,0.00566192
1850.3640,0.00542316
1851.3282,0.00524577
1852.2925,0.00513759
1853.2567,0.00509188
1854.2209,0.00509015
1855.1852,0.00511248
1856.1494,0.00514601
1857.1136,0.00518488
1858.0779,0.00522279
1859.0421,0.00524732
1860.0063,0.00524455
1860.9706,0.00521349
1861.9348,0.00517848
1862.8990,0.00518633
1863.8633,0.00528826
1864.8275,0.00551705
1865.7917,0.0058655
1866.7560,0.00626537
1867.7202,0.00658259
1868.6844,0.00667282
1869.6487,0.00649247
1870.6129,0.00613947
1871.5771,0.00576271
1872.5414,0.00546447
1873.5056,0.00528048
1874.4698,0.00520187
1875.4341,0.00519715
1876.3983,0.00522717
1877.3625,0.00525761
1878.3268,0.00526838
1879.2910,0.00525537
1880.2552,0.00522506
1881.2195,0.00518828
1882.1837,0.0051579
1883.1479,0.00514935
1884.1122,0.00517908
1885.0764,0.00525809
1886.0406,0.00538218
1887.0049,0.0055243
1887.9691,0.00563724
1888.9333,0.00567392
1889.8976,0.00561981
1890.8618,0.00550893
1891.8260,0.00540149
1892.7903,0.00534219
1893.7545,0.00533491
1894.7188,0.00534715
1895.6830,0.00533671
1896.6472,0.00528394
1897.6115,0.00520633
1898.5757,0.0051431
1899.5399,0.00512463
1900.5042,0.00515298
1901.4684,0.00520549
1902.4326,0.00525598
1903.3969,0.00529744
1904.3611,0.00534863
1905.3253,0.00543813
1906.2896,0.00557709
1907.2538,0.00573919
1908.2180,0.00586258
1909.1823,0.00587976
1910.1465,0.0057634
1911.1107,0.00555358
1912.0750,0.00533844
1913.0392,0.00520441
1914.0034,0.00519668
1914.9677,0.0053078
1915.9319,0.00548845
1916.8961,0.00567357
1917.8604,0.00581779
1918.8246,0.00591774
1919.7888,0.00599727
1920.7531,0.00606802
1921.7173,0.00610521
1922.6815,0.00606096
1923.6458,0.00590538
1924.6100,0.00566173
1925.5742,0.00540132
1926.5385,0.00520103
1927.5027,0.00510231
1928.4669,0.00509963
1929.4312,0.00515549
1930.3954,0.00522622
1931.3596,0.00528275
1932.3239,0.00531573
1933.2881,0.00532659
1934.2523,0.00531811
1935.2166,0.00529568
1936.1808,0.00527613
1937.1450,0.00529111
1938.1093,0.00537606
1939.0735,0.00554919
1940.0377,0.00579154
1941.0020,0.00603985
1941.9662,0.00620434
1942.9304,0.00621463
1943.8947,0.0060657
1944.8589,0.0058196
1945.8231,0.00556108
1946.7874,0.00535211
1947.7516,0.00521679
1948.7158,0.0051514
1949.6801,0.00514184
1950.6443,0.00517505
1951.6085,0.00524024
1952.5728,0.0053237
1953.5370,0.0054059
1954.5012,0.00546606
1955.4655,0.00549165
1956.4297,0.00548396
1957.3939,0.00545445
1958.3582,0.00541544
1959.3224,0.00537484
1960.2866,0.00533978
1961.2509,0.00532438
1962.2151,0.00535108
1963.1793,0.00543999
1964.1436,0.00559111
1965.1078,0.00577129
1966.0720,0.00591831
1967.0363,0.00596759
1968.0005,0.00588976
1968.9647,0.00571013
1969.9290,0.00549215
1970.8932,0.00530083
1971.8574,0.00517524
1972.8217,0.00512234
1973.7859,0.00512683
1974.7501,0.00516602
1975.7144,0.00522113
1976.6786,0.0052804
1977.6428,0.00533622
1978.6071,0.0053822
1979.5713,0.00541425
1980.5355,0.00543378
1981.4998,0.00544861
1982.4640,0.00546899
1983.4282,0.00550156
1984.3925,0.005547
1985.3567,0.00560373
1986.3209,0.00567433
1987.2852,0.00576747
1988.2494,0.00589058
1989.2136,0.00603632
1990.1779,0.00617281
1991.1421,0.00624944
1992.1063,0.00622229
1993.0706,0.00608473
1994.0348,0.00587729
1994.9990,0.00566624
1995.9633,0.00550943
1996.9275,0.00543313
1997.8917,0.00542883
1998.8560,0.00546579
1999.8202,0.00551061
2000.7844,0.00554318
2001.7487,0.00556104
2002.7129,0.00557277
2003.6771,0.00558827
2004.6414,0.00561331
2005.6056,0.00564884
2006.5698,0.00569178
2007.5341,0.00573496
2008.4983,0.00576775
2009.4625,0.00578089
2010.4268,0.0057748
2011.3910,0.00576561
2012.3552,0.00578144
2013.3195,0.00584804
2014.2837,0.00597049
2015.2479,0.00612213
2016.2122,0.00625033
2017.1764,0.00630091
2018.1406,0.0062491
2019.1049,0.00611466
2020.0691,0.00594923
2021.0333,0.00580674
2021.9976,0.00571846
2022.9618,0.0056854
2023.9260,0.0056872
2024.8903,0.005699
2025.8545,0.00570511
2026.8187,0.00570275
2027.7830,0.00569644
2028.7472,0.00569014
2029.7114,0.00568342
2030.6757,0.00567325
2031.6399,0.00565801
2032.6041,0.00564033
2033.5684,0.00562708
2034.5326,0.00562789
2035.4968,0.00565281
2036.4611,0.00570938
2037.4253,0.0057986
2038.3895,0.00591122
2039.3538,0.00602695
2040.3180,0.00611931
2041.2822,0.00616539
2042.2465,0.00615591
2043.2107,0.00609905
2044.1749,0.00601548
2045.1392,0.00592863
2046.1034,0.00585633
2047.0676,0.00580752
2048.0320,0.0057828
2048.9961,0.00577642
2049.9604,0.00577836
2050.9246,0.00577732
2051.8889,0.00576523
2052.8530,0.00574167
2053.8174,0.00571467
2054.7815,0.00569615
2055.7458,0.00569432
2056.7100,0.00570868
2057.6743,0.0057321
2058.6384,0.00575878
2059.6028,0.00579155
2060.5669,0.00584132
2061.5313,0.00591765
2062.4954,0.00601677
2063.4597,0.00611643
2064.4238,0.00618341
2065.3882,0.00619101
2066.3523,0.00613541
2067.3167,0.00603911
2068.2808,0.00593877
2069.2451,0.00586617
2070.2092,0.00583438
2071.1736,0.00583536
2072.1377,0.0058482
2073.1021,0.00585174
2074.0662,0.00583453
2075.0305,0.00579744
2075.9946,0.00574947
2076.9590,0.00570091
2077.9231,0.0056584
2078.8875,0.00562396
2079.8516,0.00559717
2080.8159,0.00557817
2081.7800,0.00556908
2082.7444,0.00557346
2083.7085,0.00559442
2084.6729,0.00563291
2085.6370,0.00568723
2086.6013,0.00575324
2087.5654,0.00582474
2088.5298,0.00589343
2089.4939,0.0059494
2090.4583,0.00598298
2091.4224,0.0059883
2092.3867,0.00596668
2093.3508,0.00592755
2094.3152,0.00588552
2095.2793,0.00585455
2096.2437,0.00584212
2097.2078,0.00584657
2098.1721,0.00585904
2099.1362,0.00586865
2100.1006,0.00586783
2101.0647,0.00585472
2102.0291,0.00583205
2102.9932,0.0058039
2103.9575,0.00577276
2104.9216,0.00573845
2105.8860,0.00569921
2106.8501,0.0056542
2107.8145,0.00560611
2108.7786,0.00556228
2109.7429,0.00553339
2110.7070,0.00552942
2111.6714,0.00555451
2112.6355,0.00560359
2113.5999,0.00566305
2114.5640,0.00571615
2115.5283,0.00575038
2116.4924,0.00576251
2117.4568,0.00575838
2118.4209,0.00574792
2119.3853,0.00573917
2120.3494,0.00573541
2121.3137,0.00573626
2122.2778,0.00574091
2123.2422,0.00575002
2124.2063,0.00576465
2125.1707,0.00578328
2126.1348,0.00580009
2127.0991,0.00580674
2128.0632,0.00579699
2129.0276,0.00577158
2129.9917,0.00573965
2130.9561,0.00571536
2131.9202,0.00571115
2132.8845,0.00573123
2133.8486,0.00576905
2134.8130,0.00581024
2135.7771,0.00583957
2136.7415,0.00584824
2137.7056,0.00583755
2138.6699,0.00581715
2139.6340,0.00579925
2140.5984,0.00579233
2141.5625,0.00579768
2142.5269,0.00581026
2143.4910,0.00582239
2144.4553,0.00582821
2145.4194,0.00582638
2146.3838,0.00582009
2147.3479,0.00581488
2148.3123,0.0058156
2149.2764,0.00582423
2150.2407,0.00583954
2151.2048,0.00585823
2152.1692,0.00587594
2153.1333,0.00588698
2154.0977,0.00588312
2155.0618,0.0058538
2156.0261,0.00579034
2156.9902,0.00569336
2157.9546,0.00557892
2158.9187,0.00547717
2159.8831,0.00542108
2160.8472,0.00543002
2161.8115,0.00549809
2162.7756,0.00559593
2163.7400,0.00568602
2164.7041,0.00574217
2165.6685,0.00576079
2166.6326,0.00575746
2167.5969,0.00575294
2168.5610,0.00575922
2169.5254,0.00577464
2170.4895,0.00578946
2171.4539,0.0057956
2172.4180,0.00579303
2173.3823,0.00578897
2174.3464,0.00579216
2175.3108,0.00580693
2176.2749,0.00583064
2177.2393,0.00585522
2178.2034,0.00587113
2179.1677,0.00587197
2180.1318,0.00585787
2181.0962,0.00583614
2182.0603,0.00581815
2183.0247,0.00581355
2183.9888,0.00582455
2184.9531,0.00584403
2185.9172,0.00585893
2186.8816,0.00585694
2187.8457,0.00583243
2188.8101,0.00578826
2189.7742,0.0057336
2190.7385,0.00568025
2191.7026,0.00563971
2192.6670,0.0056215
2193.6311,0.00563114
2194.5955,0.00566767
2195.5596,0.00572213
2196.5239,0.00577952
2197.4880,0.00582459
2198.4524,0.00584878
2199.4165,0.00585396
2200.3809,0.00585048
2201.3450,0.00585089
2202.3093,0.00586347
2203.2734,0.00588926
2204.2378,0.00592346
2205.2019,0.00595912
2206.1663,0.00599054
2207.1304,0.00601487
2208.0947,0.00603217
2209.0588,0.00604449
2210.0232,0.00605449
2210.9873,0.00606355
2211.9517,0.00607006
2212.9158,0.00606937
2213.8801,0.00605608
2214.8442,0.00602802
2215.8086,0.0059894
2216.7727,0.00595065
2217.7371,0.00592434
2218.7012,0.00591909
2219.6655,0.00593512
2220.6296,0.00596397
2221.5940,0.00599291
2222.5581,0.00601145
2223.5225,0.00601655
2224.4866,0.00601369
2225.4509,0.0060133
2226.4150,0.00602458
2227.3794,0.00605022
2228.3435,0.00608486
2229.3079,0.00611827
2230.2720,0.00614092
2231.2363,0.00614847
2232.2004,0.00614255
2233.1648,0.00612796
2234.1289,0.0061091
2235.0933,0.00608854
2236.0574,0.00606851
2237.0217,0.00605308
2237.9858,0.00604812
2238.9502,0.0060582
2239.9143,0.00608258
2240.8787,0.00611407
2241.8428,0.00614229
2242.8071,0.00615935
2243.7712,0.00616402
2244.7356,0.00616154
2245.6997,0.00615971
2246.6641,0.00616467
2247.6282,0.00617938
2248.5925,0.00620485
2249.5566,0.00624195
2250.5210,0.00629123
2251.4851,0.00635105
2252.4495,0.00641606
2253.4136,0.00647814
2254.3779,0.00652941
2255.3420,0.00656522
2256.3064,0.00658469
2257.2705,0.00658923
2258.2349,0.00658087
2259.1990,0.00656239
2260.1633,0.00653876
2261.1274,0.00651764
2262.0918,0.00650693
2263.0559,0.00651036
2264.0203,0.00652425
2264.9844,0.00653855
2265.9487,0.00654208
2266.9128,0.00652881
2267.8772,0.00650091
2268.8413,0.00646678
2269.8057,0.00643589
2270.7698,0.00641438
2271.7341,0.00640412
2272.6982,0.00640496
2273.6626,0.00641762
2274.6267,0.00644467
2275.5911,0.00648893
2276.5552,0.00655126
2277.5195,0.00662952
2278.4836,0.00671963
2279.4480,0.00681766
2280.4121,0.00692114
2281.3765,0.00702882
2282.3406,0.00713963
2283.3049,0.00725215
2284.2690,0.00736555
2285.2334,0.00748136
2286.1975,0.00760458
2287.1619,0.00774289
2288.1260,0.00790355
2289.0903,0.0080896
2290.0544,0.00829769
2291.0188,0.00851906
2291.9829,0.00874353
2292.9473,0.00896419
2293.9114,0.0091806
2294.8757,0.00939867
2295.8398,0.00962767
2296.8042,0.0098759
2297.7683,0.0101473
2298.7327,0.0104405
2299.6968,0.0107504
2300.6611,0.0110716
2301.6252,0.0114019
2302.5896,0.0117443
2303.5537,0.0121065
2304.5181,0.0124975
2305.4822,0.0129211
2306.4465,0.0133694
2307.4106,0.0138179
2308.3750,0.0142278
2309.3391,0.0145562
2310.3035,0.0147725
2311.2676,0.014872
2312.2319,0.014879
2313.1960,0.0148348
2314.1604,0.0147793
2315.1245,0.0147372
2316.0889,0.0147156
2317.0530,0.0147113
2318.0173,0.0147173
2318.9814,0.0147246
2319.9458,0.014717
2320.9099,0.014669
2321.8743,0.0145528
2322.8384,0.0143582
2323.8027,0.0141075
2324.7668,0.0138495
2325.7312,0.0136316
2326.6953,0.0134671
2327.6597,0.0133205
2328.6238,0.013124
2329.5881,0.0128172
2330.5522,0.0123883
2331.5166,0.0118841
2332.4807,0.0113805
2333.4451,0.0109375
2334.4092,0.0105751
2335.3735,0.0102808
2336.3376,0.0100359
2337.3020,0.00983818
2338.2661,0.00970599
2339.2305,0.00966409
2340.1946,0.00972772
2341.1589,0.0099039
2342.1230,0.0102066
2343.0874,0.0106542
2344.0515,0.0112298
2345.0159,0.0118571
2345.9800,0.0124486
2346.9443,0.0129577
2347.9084,0.0133725
2348.8728,0.0136861
2349.8369,0.0138765
2350.8013,0.0138966
2351.7654,0.0136798
2352.7297,0.0131746
2353.6938,0.0124249
2354.6582,0.0116421
2355.6223,0.0111212
2356.5867,0.0110108
2357.5508,0.0112109
2358.5151,0.0115001
2359.4792,0.0117176
2360.4436,0.0118611
2361.4077,0.0120478
2362.3721,0.0123859
2363.3362,0.0128796
2364.3005,0.0134286
2365.2646,0.0138962
2366.2290,0.0141957
2367.1931,0.0143322
2368.1575,0.014378
2369.1216,0.014413
2370.0859,0.0144741
2371.0500,0.0145401
2372.0144,0.0145543
2372.9785,0.0144642
2373.9429,0.0142519
2374.9070,0.0139403
2375.8713,0.0135758
2376.8354,0.0132022
2377.7998,0.0128413
2378.7639,0.0124868
2379.7283,0.0121141
2380.6924,0.0116948
2381.6567,0.0112112
2382.6208,0.0106638
2383.5852,0.0100708
2384.5493,0.00946391
2385.5137,0.00888127
2386.4778,0.00836025
2387.4421,0.00793064
2388.4063,0.00760895
2389.3706,0.00739522
2390.3347,0.00727359
2391.2991,0.00721723
2392.2632,0.00719612
2393.2275,0.00718497
2394.1917,0.00716809
2395.1560,0.00714013
2396.1201,0.00710336
2397.0845,0.00706369
2398.0486,0.00702741
2399.0129,0.00699948
2399.9771,0.00698281
2400.9414,0.00697767
2401.9055,0.0069812
2402.8699,0.00698765
2403.8340,0.00699009
2404.7983,0.00698344
2405.7625,0.00696708
2406.7268,0.00694538
2407.6909,0.00692555
2408.6553,0.00691401
2409.6194,0.00691365
2410.5837,0.00692353
2411.5479,0.00694081
2412.5122,0.00696314
2413.4763,0.0069896
2414.4407,0.00701993
2415.4048,0.00705306
2416.3691,0.0070865
2417.3333,0.00711734
2418.2976,0.00714394
2419.2617,0.00716681
2420.2261,0.00718808
2421.1902,0.00720976
2422.1545,0.00723197
2423.1187,0.00725217
2424.0830,0.00726579
2425.0471,0.00726787
2426.0115,0.00725518
2426.9756,0.00722825
2427.9399,0.00719251
2428.9041,0.00715762
2429.8684,0.00713453
2430.8325,0.00713096
2431.7969,0.00714729
2432.7610,0.00717531
2433.7253,0.00720149
2434.6895,0.00721326
2435.6538,0.00720533
2436.6179,0.00718191
2437.5823,0.00715365
2438.5464,0.0071311
2439.5107,0.00711901
2440.4749,0.00711522
2441.4392,0.00711437
2442.4033,0.00711324
2443.3677,0.00711364
2444.3318,0.00712036
2445.2961,0.00713638
2446.2603,0.00715901
2447.2246,0.00718031
2448.1887,0.00719154
2449.1531,0.00718821
2450.1172,0.00717235
2451.0815,0.00715069
2452.0457,0.00713071
2453.0100,0.00711737
2453.9741,0.00711231
2454.9385,0.00711496
2455.9026,0.00712402
2456.8669,0.00713802
2457.8311,0.00715532
2458.7954,0.00717393
2459.7595,0.00719174
2460.7239,0.00720683
2461.6880,0.00721757
2462.6523,0.00722276
2463.6165,0.00722203
2464.5808,0.00721637
2465.5449,0.00720828
2466.5093,0.00720092
2467.4734,0.00719701
2468.4377,0.0071984
2469.4019,0.00720673
2470.3662,0.00722427
2471.3303,0.00725302
2472.2947,0.00729184
2473.2588,0.00733358
2474.2231,0.00736574
2475.1873,0.00737607
2476.1516,0.00736071
2477.1157,0.00732901
2478.0801,0.00730051
2479.0442,0.00729437
2480.0085,0.00731767
2480.9727,0.00736015
2481.9370,0.0073996
2482.9011,0.00741456
2483.8655,0.0073965
2484.8296,0.00735394
2485.7939,0.0073068
2486.7581,0.00727553
2487.7224,0.0072719
2488.6865,0.00729597
2489.6509,0.00733915
2490.6150,0.00738948
2491.5793,0.00743577
2492.5435,0.00746963
2493.5078,0.00748628
2494.4719,0.00748536
2495.4363,0.00747128
2496.4004,0.00745185
2497.3647,0.00743502
2498.3289,0.00742569
2499.2932,0.00742469
2500.2573,0.00743081
2501.2217,0.00744363
2502.1858,0.00746425
2503.1501,0.00749276
2504.1143,0.007525
2505.0786,0.00755215
2506.0427,0.00756514
2507.0071,0.00756119
2507.9712,0.00754732
2508.9355,0.00753735
2509.8997,0.00754356
2510.8640,0.00756849
2511.8281,0.00760253
2512.7925,0.00762865
2513.7566,0.00763133
2514.7209,0.00760427
2515.6851,0.00755333
2516.6494,0.00749438
2517.6135,0.0074479
2518.5779,0.00743256
2519.5420,0.00745916
2520.5063,0.00752645
2521.4705,0.00762057
2522.4348,0.0077193
2523.3989,0.00780025
2524.3633,0.00784939
2525.3274,0.00786551
2526.2917,0.00785846
2527.2559,0.00784271
2528.2202,0.00783051
2529.1843,0.00782816
2530.1487,0.0078362
2531.1128,0.00785156
2532.0771,0.00786937
2533.0413,0.00788359
2534.0056,0.00788746
2534.9697,0.00787508
2535.9341,0.00784391
2536.8982,0.00779703
2537.8625,0.0077434
2538.8267,0.00769582
2539.7910,0.00766729
2540.7551,0.00766702
2541.7195,0.0076974
2542.6836,0.00775283
2543.6479,0.00782121
2544.6121,0.00788796
2545.5764,0.0079414
2546.5405,0.00797725
2547.5049,0.00799949
2548.4690,0.00801705
2549.4333,0.00803796
2550.3975,0.00806449
2551.3618,0.00809235
2552.3259,0.00811423
2553.2903,0.00812497
2554.2544,0.00812481
2555.2188,0.00811862
2556.1829,0.00811175
2557.1472,0.00810585
2558.1113,0.00809763
2559.0757,0.00808161
2560.0398,0.00805499
2561.0042,0.00802104
2561.9683,0.00798858
2562.9326,0.00796738
2563.8967,0.00796252
2564.8611,0.00797146
2565.8252,0.00798611
2566.7896,0.00799864
2567.7537,0.00800719
2568.7180,0.00801754
2569.6821,0.00803939
2570.6465,0.00807993
2571.6106,0.00813919
2572.5750,0.00821035
2573.5391,0.00828436
2574.5034,0.00835515
2575.4675,0.00842129
2576.4319,0.00848336
2577.3960,0.00853967
2578.3604,0.00858441
2579.3245,0.00861019
2580.2888,0.008613
2581.2529,0.00859539
2582.2173,0.00856525
2583.1814,0.00853087
2584.1458,0.00849613
2585.1099,0.00845966
2586.0742,0.00841835
2587.0383,0.0083724
2588.0027,0.00832793
2588.9668,0.00829491
2589.9312,0.00828225
2590.8953,0.00829318
2591.8596,0.00832404
2592.8237,0.00836678
2593.7881,0.0084132
2594.7522,0.0084582
2595.7166,0.00850077
2596.6807,0.00854278
2597.6450,0.00858689
2598.6091,0.00863474
2599.5735,0.00868589
2600.5376,0.00873777
2601.5020,0.00878623
2602.4661,0.00882679
2603.4304,0.00885619
2604.3945,0.00887353
2605.3589,0.0088805
2606.3230,0.00888029
2607.2874,0.00887578
2608.2515,0.00886797
2609.2158,0.00885566
2610.1799,0.00883691
2611.1443,0.00881113
2612.1084,0.00878052
2613.0728,0.00874969
2614.0369,0.00872361
2615.0012,0.00870546
2615.9653,0.00869609
2616.9297,0.00869558
2617.8938,0.0087053
2618.8582,0.00872818
2619.8223,0.00876605
2620.7866,0.00881586
2621.7507,0.00886811
2622.7151,0.0089103
2623.6792,0.0089341
2624.6436,0.00894169
2625.6077,0.00894604
2626.5720,0.00896385
2627.5361,0.00900529
2628.5005,0.00906741
2629.4646,0.00913601
2630.4290,0.00919447
2631.3931,0.00923343
2632.3574,0.00925453
2633.3215,0.0092664
2634.2859,0.00927672
2635.2500,0.00928637
2636.2144,0.00928953
2637.1785,0.00927845
2638.1428,0.00924924
2639.1069,0.0092047
2640.0713,0.0091538
2641.0354,0.00910904
2641.9998,0.00908305
2642.9639,0.00908482
2643.9282,0.00911556
2644.8923,0.00916592
2645.8567,0.00921731
2646.8208,0.00924877
2647.7852,0.00924721
2648.7493,0.00921519
2649.7136,0.0091707
2650.6777,0.00913818
2651.6421,0.00913595
2652.6062,0.00916786
2653.5706,0.00922413
2654.5347,0.00928998
2655.4990,0.00935532
2656.4631,0.00941895
2657.4275,0.00948508
2658.3916,0.00955621
2659.3560,0.00962811
2660.3201,0.00969076
2661.2844,0.00973413
2662.2485,0.00975434
2663.2129,0.00975586
2664.1770,0.00974861
2665.1414,0.00974207
2666.1055,0.00974027
2667.0698,0.00974042
2668.0339,0.0097356
2668.9983,0.00971969
2669.9624,0.00969205
2670.9268,0.00965934
2671.8909,0.00963383
2672.8552,0.0096288
2673.8193,0.00965306
2674.7837,0.00970707
2675.7478,0.00978208
2676.7122,0.00986285
2677.6763,0.00993251
2678.6406,0.00997805
2679.6047,0.00999448
2680.5691,0.00998679
2681.5332,0.00996878
2682.4976,0.00995878
2683.4617,0.00997295
2684.4260,0.0100185
2685.3901,0.0100897
2686.3545,0.0101697
2687.3186,0.0102378
2688.2830,0.0102785
2689.2471,0.0102886
2690.2114,0.0102765
2691.1755,0.010256
2692.1399,0.0102371
2693.1040,0.0102207
2694.0684,0.0101999
2695.0325,0.0101659
2695.9968,0.0101153
2696.9609,0.0100529
2697.9253,0.00998953
2698.8894,0.00993762
2699.8538,0.00990651
2700.8179,0.00990087
2701.7822,0.009921
2702.7463,0.00996389
2703.7107,0.0100238
2704.6748,0.0100927
2705.6392,0.0101622
2706.6033,0.0102255
2707.5676,0.0102808
2708.5317,0.0103324
2709.4961,0.0103887
2710.4602,0.0104587
2711.4246,0.0105471
2712.3887,0.0106515
2713.3530,0.0107617
2714.3171,0.0108643
2715.2815,0.0109491
2716.2456,0.0110154
2717.2100,0.0110745
2718.1741,0.0111458
2719.1384,0.0112485
2720.1025,0.0113923
2721.0669,0.0115731
2722.0310,0.0117763
2722.9954,0.0119844
2723.9595,0.0121843
2724.9238,0.0123688
2725.8879,0.0125321
2726.8523,0.0126646
2727.8164,0.0127522
2728.7808,0.0127821
2729.7449,0.0127507
2730.7092,0.0126694
2731.6733,0.0125612
2732.6377,0.0124513
2733.6018,0.0123578
2734.5662,0.0122862
2735.5303,0.0122317
2736.4946,0.0121855
2737.4587,0.012141
2738.4231,0.0120958
2739.3872,0.0120508
2740.3516,0.012008
2741.3157,0.0119685
2742.2800,0.0119321
2743.2441,0.0118975
2744.2085,0.0118632
2745.1726,0.011828
2746.1370,0.0117922
2747.1011,0.0117578
2748.0654,0.0117285
2749.0295,0.0117078
2749.9939,0.0116966
2750.9580,0.0116912
2751.9224,0.0116846
2752.8865,0.0116694
2753.8508,0.0116421
2754.8149,0.0116057
2755.7793,0.0115694
2756.7434,0.0115449
2757.7078,0.0115412
2758.6719,0.0115602
2759.6362,0.0115953
2760.6003,0.0116345
2761.5647,0.0116659
2762.5288,0.0116831
2763.4932,0.0116882
2764.4573,0.0116894
2765.4216,0.0116948
2766.3857,0.0117072
2767.3501,0.0117217
2768.3142,0.0117294
2769.2786,0.0117235
2770.2427,0.0117052
2771.2070,0.0116852
2772.1711,0.0116786
2773.1355,0.0116983
2774.0996,0.0117478
2775.0640,0.0118198
2776.0281,0.0118994
2776.9924,0.0119721
2777.9565,0.0120305
2778.9209,0.0120781
2779.8850,0.0121264
2780.8494,0.0121878
2781.8135,0.0122685
2782.7778,0.0123653
2783.7419,0.0124689
2784.7063,0.0125704
2785.6704,0.012668
2786.6348,0.012767
2787.5989,0.0128749
2788.5632,0.0129941
2789.5273,0.013119
2790.4917,0.0132397
2791.4558,0.0133491
2792.4202,0.0134481
2793.3843,0.0135446
2794.3486,0.0136466
2795.3127,0.0137551
2796.2771,0.0138625
2797.2412,0.013959
2798.2056,0.0140403
2799.1697,0.0141133
2800.1340,0.0141931
2801.0981,0.014295
2802.0625,0.0144261
2803.0266,0.014582
2803.9910,0.0147504
2804.9551,0.0149178
2805.9194,0.0150763
2806.8835,0.0152265
2807.8479,0.0153768
2808.8120,0.0155405
2809.7764,0.0157316
2810.7405,0.0159605
2811.7048,0.0162311
2812.6689,0.0165375
2813.6333,0.0168655
2814.5974,0.0171952
2815.5618,0.0175068
2816.5259,0.0177853
2817.4902,0.018024
2818.4543,0.0182242
2819.4187,0.0183948
2820.3828,0.01855
2821.3472,0.0187067
2822.3113,0.0188814
2823.2756,0.0190863
2824.2397,0.0193265
2825.2041,0.0196003
2826.1682,0.0199028
2827.1326,0.0202321
2828.0967,0.020594
2829.0610,0.0210032
2830.0251,0.0214797
2830.9895,0.0220442
2831.9536,0.0227138
2832.9180,0.0235027
2833.8821,0.0244249
2834.8464,0.0254986
2835.8105,0.0267482
2836.7749,0.0282042
2837.7390,0.0299006
2838.7034,0.0318709
2839.6675,0.0341447
2840.6318,0.0367441
2841.5959,0.0396802
2842.5603,0.0429512
2843.5244,0.0465398
2844.4888,0.0504094
2845.4529,0.0544955
2846.4172,0.058694
2847.3813,0.062851
2848.3457,0.066762
2849.3098,0.0701887
2850.2742,0.0728919
2851.2383,0.0746716
2852.2026,0.0753999
2853.1667,0.07504
2854.1311,0.0736465
2855.0952,0.0713535
2856.0596,0.0683506
2857.0237,0.0648537
2857.9880,0.0610759
2858.9521,0.0572073
2859.9165,0.0534057
2860.8806,0.0497992
2861.8450,0.0464911
2862.8091,0.0435642
2863.7734,0.0410795
2864.7375,0.0390727
2865.7019,0.0375492
2866.6660,0.0364819
2867.6304,0.0358104
2868.5945,0.035443
2869.5588,0.0352639
2870.5229,0.0351472
2871.4873,0.034978
2872.4514,0.0346775
2873.4158,0.0342214
2874.3799,0.0336436
2875.3442,0.03302
2876.3083,0.0324377
2877.2727,0.0319647
2878.2368,0.0316333
2879.2012,0.0314441
2880.1653,0.0313843
2881.1296,0.0314484
2882.0938,0.0316471
2883.0581,0.0320016
2884.0222,0.0325285
2884.9866,0.0332255
2885.9507,0.0340681
2886.9150,0.0350166
2887.8792,0.03603
2888.8435,0.0370775
2889.8076,0.038144
2890.7720,0.0392286
2891.7361,0.0403382
2892.7004,0.0414803
2893.6646,0.0426567
2894.6289,0.0438601
2895.5930,0.0450756
2896.5574,0.0462871
2897.5215,0.0474861
2898.4858,0.0486781
2899.4500,0.0498844
2900.4143,0.0511353
2901.3784,0.0524606
2902.3428,0.0538813
2903.3069,0.0554072
2904.2712,0.057042
2905.2354,0.0587935
2906.1997,0.0606835
2907.1638,0.0627523
2908.1282,0.0650562
2909.0923,0.0676569
2910.0566,0.0706075
2911.0208,0.0739401
2911.9851,0.0776587
2912.9492,0.081739
2913.9136,0.0861308
2914.8777,0.0907593
2915.8420,0.0955208
2916.8062,0.100276
2917.7705,0.104849
2918.7346,0.109035
2919.6990,0.112626
2920.6631,0.115436
2921.6274,0.11733
2922.5916,0.118238
2923.5559,0.118159
2924.5200,0.117156
2925.4844,0.115335
2926.4485,0.112829
2927.4128,0.10977
2928.3770,0.106279
2929.3413,0.102453
2930.3054,0.0983621
2931.2698,0.0940626
2932.2339,0.0896009
2933.1982,0.085026
2934.1624,0.0803946
2935.1267,0.0757725
2936.0908,0.0712306
2937.0552,0.0668382
2938.0193,0.0626548
2938.9836,0.0587255
2939.9478,0.0550786
2940.9121,0.0517296
2941.8762,0.0486866
2942.8406,0.045959
2943.8047,0.0435625
2944.7690,0.0415225
2945.7332,0.0398701
2946.6975,0.0386336
2947.6616,0.0378266
2948.6260,0.0374365
2949.5901,0.0374181
2950.5544,0.0376937
2951.5186,0.0381592
2952.4829,0.0386943
2953.4470,0.0391756
2954.4114,0.0394916
2955.3755,0.0395584
2956.3398,0.03933
2957.3040,0.0387998
2958.2683,0.0379917
2959.2324,0.0369441
2960.1968,0.0356947
2961.1609,0.034273
2962.1252,0.0327022
2963.0894,0.0310066
2964.0537,0.0292187
2965.0178,0.0273801
2965.9822,0.0255363
2966.9463,0.0237296
2967.9106,0.0219948
2968.8748,0.020359
2969.8391,0.0188444
2970.8032,0.0174696
2971.7676,0.0162462
2972.7317,0.0151735
2973.6960,0.0142358
2974.6602,0.0134066
2975.6245,0.012659
2976.5886,0.0119765
2977.5530,0.0113575
2978.5171,0.0108096
2979.4814,0.0103384
2980.4456,0.00993842
2981.4099,0.00959162
2982.3740,0.00927584
2983.3384,0.00897561
2984.3025,0.00868888
2985.2668,0.00842537
2986.2310,0.00819858
2987.1953,0.00801684
2988.1594,0.00787812
2989.1238,0.00777055
2990.0879,0.00767714
2991.0522,0.00758182
2992.0164,0.00747457
2992.9807,0.00735412
2993.9448,0.00722764
2994.9092,0.00710736
2995.8733,0.00700549
2996.8376,0.00692999
2997.8018,0.00688295
2998.7661,0.00686166
2999.7302,0.00686019
3000.6946,0.0068701
3001.6587,0.00688046
3002.6230,0.00687966
3003.5872,0.00685992
3004.5515,0.0068227
3005.5156,0.0067803
3006.4800,0.00675059
3007.4441,0.00674702
3008.4084,0.00677001
3009.3726,0.0068059
3010.3369,0.00683409
3011.3010,0.00683763
3012.2654,0.00681049
3013.2295,0.0067576
3014.1938,0.00668918
3015.1580,0.00661529
3016.1223,0.00654437
3017.0864,0.00648517
3018.0508,0.00644792
3019.0149,0.00644158
3019.9792,0.00646861
3020.9434,0.00652125
3021.9077,0.00658304
3022.8718,0.00663556
3023.8362,0.0066669
3024.8003,0.00667718
3025.7646,0.00667819
3026.7288,0.00668729
3027.6931,0.00671878
3028.6572,0.00677667
3029.6216,0.00685164
3030.5857,0.00692368
3031.5500,0.00696979
3032.5142,0.00697397
3033.4785,0.00693456
3034.4426,0.00686491
3035.4070,0.00678704
3036.3711,0.00672247
3037.3354,0.00668526
3038.2996,0.00668013
3039.2639,0.00670486
3040.2280,0.00675391
3041.1924,0.00682023
3042.1565,0.00689468
3043.1208,0.00696518
3044.0850,0.00701836
3045.0493,0.00704404
3046.0134,0.00704021
3046.9778,0.00701464
3047.9419,0.00698153
3048.9063,0.00695455
3049.8704,0.00694081
3050.8347,0.00693993
3051.7988,0.00694832
3052.7632,0.00696509
3053.7273,0.00699432
3054.6917,0.007042
3055.6558,0.00710986
3056.6201,0.00719128
3057.5842,0.00727314
3058.5486,0.00734308
3059.5127,0.00739696
3060.4771,0.00744165
3061.4412,0.00749147
3062.4055,0.00756138
3063.3696,0.00766095
3064.3340,0.00779199
3065.2981,0.00795057
3066.2625,0.00813212
3067.2266,0.00833685
3068.1909,0.00857302
3069.1550,0.00885625
3070.1194,0.00920509
3071.0835,0.00963465
3072.0479,0.0101515
3073.0120,0.0107521
3073.9763,0.0114255
3074.9404,0.0121556
3075.9048,0.0129195
3076.8689,0.013679
3077.8333,0.0143723
3078.7974,0.0149138
3079.7617,0.0152115
3080.7258,0.0151965
3081.6902,0.0148512
3082.6543,0.0142189
3083.6187,0.0133889
3084.5828,0.012467
3085.5471,0.0115475
3086.5112,0.010697
3087.4756,0.00995326
3088.4397,0.0093312
3089.4041,0.00882952
3090.3682,0.00843424
3091.3325,0.00812158
3092.2966,0.00786366
3093.2610,0.0076372
3094.2251,0.00743122
3095.1895,0.00724811
3096.1536,0.00709654
3097.1179,0.00698069
3098.0820,0.00689381
3099.0464,0.0068203
3100.0105,0.00674457
3100.9749,0.00665978
3101.9390,0.00657078
3102.9033,0.00648949
3103.8674,0.00642688
3104.8318,0.00638696
3105.7959,0.00636624
3106.7603,0.00635721
3107.7244,0.00635306
3108.6887,0.00635058
3109.6528,0.0063505
3110.6172,0.00635527
3111.5813,0.00636583
3112.5457,0.00637943
3113.5098,0.00639014
3114.4741,0.00639213
3115.4382,0.00638356
3116.4026,0.00636794
3117.3667,0.00635093
3118.3311,0.00633508
3119.2952,0.00631686
3120.2595,0.0062898
3121.2236,0.00625157
3122.1880,0.00620919
3123.1521,0.00617667
3124.1165,0.00616538
3125.0806,0.00617434
3126.0449,0.00618866
3127.0090,0.00618899
3127.9734,0.00616543
3128.9375,0.0061259
3129.9019,0.00609275
3130.8660,0.0060895
3131.8303,0.00612676
3132.7944,0.00619604
3133.7588,0.00627531
3134.7229,0.00634183
3135.6873,0.00638351
3136.6514,0.00640207
3137.6157,0.00640795
3138.5798,0.0064122
3139.5442,0.0064207
3140.5083,0.00643337
3141.4727,0.00644732
3142.4368,0.00646084
3143.4011,0.00647506
3144.3652,0.00649255
3145.3296,0.00651475
3146.2937,0.00654099
3147.2581,0.00657004
3148.2222,0.00660231
3149.1865,0.00663955
3150.1506,0.00668134
3151.1150,0.00672114
3152.0791,0.00674689
3153.0435,0.00674822
3154.0076,0.0067262
3154.9719,0.00669726
3155.9360,0.00668607
3156.9004,0.00671052
3157.8645,0.00676958
3158.8289,0.00684376
3159.7930,0.006909
3160.7573,0.00695373
3161.7214,0.00698624
3162.6858,0.0070266
3163.6499,0.00708957
3164.6143,0.00717179
3165.5784,0.00725251
3166.5427,0.00730617
3167.5068,0.0073167
3168.4712,0.00728378
3169.4353,0.00721967
3170.3997,0.0071423
3171.3638,0.00707114
3172.3281,0.00702594
3173.2922,0.00702422
3174.2566,0.00707427
3175.2207,0.00716671
3176.1851,0.00727241
3177.1492,0.00735246
3178.1135,0.00737747
3179.0776,0.00734434
3180.0420,0.0072779
3181.0061,0.00721568
3181.9705,0.00718679
3182.9346,0.00719929
3183.8989,0.00724229
3184.8630,0.00729815
3185.8274,0.0073544
3186.7915,0.0074072
3187.7559,0.00745662
3188.7200,0.00750066
3189.6843,0.00753483
3190.6484,0.0075573
3191.6128,0.00757356
3192.5769,0.00759474
3193.5413,0.00762971
3194.5054,0.00767745
3195.4697,0.00772641
3196.4338,0.00776223
3197.3982,0.00777812
3198.3623,0.00777986
3199.3267,0.00778152
3200.2908,0.00779553
3201.2551,0.00782525
3202.2192,0.00786497
3203.1836,0.00790594
3204.1477,0.00794259
3205.1121,0.00797421
3206.0762,0.00800191
3207.0405,0.00802459
3208.0046,0.00803826
3208.9690,0.00803958
3209.9331,0.00803098
3210.8975,0.0080229
3211.8616,0.00803091
3212.8259,0.00806867
3213.7900,0.00814052
3214.7544,0.00823759
3215.7185,0.00833978
3216.6829,0.00842279
3217.6470,0.00846733
3218.6113,0.00846646
3219.5754,0.00842849
3220.5398,0.00837413
3221.5039,0.00832887
3222.4683,0.00831335
3223.4324,0.00833595
3224.3967,0.00839052
3225.3608,0.00846005
3226.3252,0.00852485
3227.2893,0.00857206
3228.2537,0.00860175
3229.2178,0.00862557
3230.1821,0.00865784
3231.1462,0.00870479
3232.1106,0.00876019
3233.0747,0.00881111
3234.0391,0.00885034
3235.0032,0.00888523
3235.9675,0.00893452
3236.9316,0.00901356
3237.8960,0.00911868
3238.8601,0.0092242
3239.8245,0.00929631
3240.7886,0.00931511
3241.7529,0.0092886
3242.7170,0.00924833
3243.6814,0.00922931
3244.6455,0.00924794
3245.6099,0.00929346
3246.5740,0.00933902
3247.5383,0.00936381
3248.5024,0.00936944
3249.4668,0.00937916
3250.4309,0.00942186
3251.3953,0.00951268
3252.3594,0.00964266
3253.3237,0.00978314
3254.2878,0.00990178
3255.2522,0.00997983
3256.2163,0.0100199
3257.1807,0.0100404
3258.1448,0.0100621
3259.1091,0.0100968
3260.0732,0.0101444
3261.0376,0.0101988
3262.0017,0.0102541
3262.9661,0.0103069
3263.9302,0.0103524
3264.8945,0.0103814
3265.8586,0.0103838
3266.8230,0.0103574
3267.7871,0.0103157
3268.7515,0.0102845
3269.7156,0.0102894
3270.6799,0.0103402
3271.6440,0.010425
3272.6084,0.0105188
3273.5725,0.010598
3274.5369,0.0106521
3275.5010,0.0106826
3276.4653,0.0106932
3277.4294,0.0106822
3278.3938,0.0106443
3279.3579,0.0105787
3280.3223,0.0104948
3281.2864,0.0104088
3282.2507,0.0103344
3283.2148,0.0102765
3284.1792,0.0102332
3285.1433,0.010204
3286.1077,0.0101955
3287.0718,0.0102186
3288.0361,0.0102784
3289.0002,0.010367
3289.9646,0.0104643
3290.9287,0.0105472
3291.8931,0.010599
3292.8572,0.010614
3293.8215,0.010595
3294.7856,0.0105497
3295.7500,0.0104894
3296.7141,0.0104313
3297.6785,0.0103969
3298.6426,0.0104048
3299.6069,0.0104593
3300.5710,0.0105451
3301.5354,0.0106318
3302.4995,0.0106885
3303.4639,0.0106998
3304.4280,0.0106732
3305.3923,0.0106339
3306.3564,0.0106106
3307.3208,0.0106218
3308.2849,0.0106687
3309.2493,0.0107388
3310.2134,0.0108154
3311.1777,0.0108871
3312.1418,0.0109504
3313.1062,0.0110076
3314.0703,0.0110605
3315.0347,0.0111082
3315.9988,0.0111477
3316.9631,0.0111777
3317.9272,0.0112009
3318.8916,0.0112241
3319.8557,0.0112538
3320.8201,0.0112935
3321.7842,0.0113423
3322.7485,0.0113966
3323.7126,0.0114526
3324.6770,0.0115071
3325.6411,0.0115565
3326.6055,0.0115963
3327.5696,0.0116227
3328.5339,0.0116369
3329.4980,0.0116478
3330.4624,0.0116704
3331.4265,0.0117174
3332.3909,0.0117901
3333.3550,0.0118736
3334.3193,0.0119427
3335.2834,0.0119762
3336.2478,0.0119716
3337.2119,0.0119495
3338.1763,0.0119427
3339.1404,0.0119755
3340.1047,0.0120491
3341.0688,0.0121425
3342.0332,0.0122288
3342.9973,0.0122938
3343.9617,0.0123446
3344.9258,0.0123996
3345.8901,0.0124711
3346.8542,0.0125537
3347.8186,0.0126303
3348.7827,0.0126905
3349.7471,0.0127457
3350.7112,0.0128256
3351.6755,0.0129577
3352.6396,0.0131425
3353.6040,0.0133465
3354.5681,0.0135191
3355.5325,0.0136237
3356.4966,0.0136587
3357.4609,0.013655
3358.4250,0.0136518
3359.3894,0.0136713
3360.3535,0.0137095
3361.3179,0.0137467
3362.2820,0.0137676
3363.2463,0.013773
3364.2104,0.0137777
3365.1748,0.0137974
3366.1389,0.0138386
3367.1033,0.0138975
3368.0674,0.0139664
3369.0317,0.0140392
3369.9958,0.0141118
3370.9602,0.0141794
3371.9243,0.0142361
3372.8887,0.0142799
3373.8528,0.0143169
3374.8171,0.0143614
3375.7813,0.0144264
3376.7456,0.0145147
3377.7097,0.0146158
3378.6741,0.014713
3379.6382,0.0147963
3380.6025,0.0148688
3381.5667,0.014941
3382.5310,0.0150191
3383.4951,0.0150965
3384.4595,0.0151583
3385.4236,0.0151948
3386.3879,0.0152132
3387.3521,0.0152343
3388.3164,0.0152761
3389.2805,0.0153387
3390.2449,0.0154031
3391.2090,0.0154464
3392.1733,0.0154623
3393.1375,0.0154694
3394.1018,0.0154976
3395.0659,0.0155626
3396.0303,0.01565
3396.9944,0.0157226
3397.9587,0.0157455
3398.9229,0.0157102
3399.8872,0.0156406
3400.8513,0.0155763
3401.8157,0.0155485
3402.7798,0.0155647
3403.7441,0.0156112
3404.7083,0.0156672
3405.6726,0.0157187
3406.6367,0.0157613
3407.6011,0.0157967
3408.5652,0.0158256
3409.5295,0.0158472
3410.4937,0.0158601
3411.4580,0.0158655
3412.4221,0.0158669
3413.3865,0.0158705
3414.3506,0.0158859
3415.3149,0.0159263
3416.2791,0.0160067
3417.2434,0.0161351
3418.2075,0.0163026
3419.1719,0.0164763
3420.1360,0.0166053
3421.1003,0.0166412
3422.0645,0.0165654
3423.0288,0.0164039
3423.9929,0.0162161
3424.9573,0.0160662
3425.9214,0.0159929
3426.8857,0.0159931
3427.8499,0.016027
3428.8142,0.0160414
3429.7783,0.0160021
3430.7427,0.015913
3431.7068,0.0158111
3432.6711,0.0157414
3433.6353,0.01573
3434.5996,0.0157736
3435.5637,0.0158497
3436.5281,0.015935
3437.4922,0.0160169
3438.4565,0.0160922
3439.4207,0.0161584
3440.3850,0.0162106
3441.3491,0.0162481
3442.3135,0.0162825
3443.2776,0.0163354
3444.2419,0.0164221
3445.2061,0.0165315
3446.1704,0.0166198
3447.1345,0.0166293
3448.0989,0.016524
3449.0630,0.0163148
3450.0273,0.0160527
3450.9915,0.0157984
3451.9558,0.015596
3452.9199,0.0154647
3453.8843,0.0154053
3454.8484,0.0154109
3455.8127,0.0154732
3456.7769,0.0155823
3457.7412,0.0157224
3458.7053,0.0158688
3459.6697,0.015991
3460.6338,0.016062
3461.5981,0.0160687
3462.5623,0.0160191
3463.5266,0.0159392
3464.4907,0.0158602
3465.4551,0.0158042
3466.4192,0.0157732
3467.3835,0.0157498
3468.3477,0.0157081
3469.3120,0.0156296
3470.2761,0.015514
3471.2405,0.015379
3472.2046,0.0152497
3473.1689,0.0151473
3474.1331,0.0150848
3475.0974,0.015069
3476.0615,0.0151052
3477.0259,0.0151951
3477.9900,0.0153283
3478.9543,0.0154728
3479.9185,0.0155771
3480.8828,0.0155898
3481.8469,0.0154931
3482.8113,0.0153244
3483.7754,0.015161
3484.7397,0.015078
3485.7039,0.0151073
3486.6682,0.0152225
3487.6323,0.0153523
3488.5967,0.0154187
3489.5608,0.01538
3490.5251,0.0152506
3491.4893,0.0150839
3492.4536,0.0149341
3493.4177,0.0148277
3494.3821,0.0147601
3495.3462,0.0147155
3496.3105,0.0146953
3497.2747,0.0147295
3498.2390,0.0148573
3499.2031,0.0150911
3500.1675,0.0153875
3501.1316,0.0156451
3502.0959,0.0157418
3503.0601,0.0156089
3504.0244,0.015291
3504.9885,0.0149277
3505.9529,0.0146645
3506.9170,0.0145743
3507.8813,0.0146355
3508.8455,0.0147547
3509.8098,0.014818
3510.7739,0.014752
3511.7383,0.0145599
3512.7024,0.0143062
3513.6667,0.0140673
3514.6309,0.0138923
3515.5952,0.0137931
3516.5593,0.0137586
3517.5237,0.0137786
3518.4878,0.0138605
3519.4521,0.0140268
3520.4163,0.0142919
3521.3806,0.0146351
3522.3447,0.0149871
3523.3091,0.0152481
3524.2732,0.0153341
3525.2375,0.0152201
3526.2017,0.0149445
3527.1660,0.0145746
3528.1301,0.0141682
3529.0945,0.0137591
3530.0586,0.0133726
3531.0229,0.0130451
3531.9871,0.0128267
3532.9514,0.0127598
3533.9155,0.0128482
3534.8799,0.0130357
3535.8440,0.0132151
3536.8083,0.0132795
3537.7725,0.0131939
3538.7368,0.0130286
3539.7009,0.0129239
3540.6653,0.0130171
3541.6294,0.0133799
3542.5938,0.0139804
3543.5579,0.0146657
3544.5222,0.0151876
3545.4863,0.0153143
3546.4507,0.0149876
3547.4148,0.0143745
3548.3792,0.0137392
3549.3433,0.0132765
3550.3076,0.0130371
3551.2717,0.0129421
3552.2361,0.0128475
3553.2002,0.0126412
3554.1646,0.0123227
3555.1287,0.0119972
3556.0930,0.0117921
3557.0571,0.0117766
3558.0215,0.0119333
3558.9856,0.0121812
3559.9500,0.0124344
3560.9141,0.0126702
3561.8784,0.0129532
3562.8425,0.0133925
3563.8069,0.0140595
3564.7710,0.014892
3565.7354,0.0156126
3566.6995,0.0157942
3567.6638,0.0152095
3568.6279,0.014111
3569.5923,0.0129777
3570.5564,0.0121243
3571.5208,0.0116258
3572.4849,0.0114193
3573.4492,0.0113934
3574.4133,0.011439
3575.3777,0.0114837
3576.3418,0.0115049
3577.3062,0.0115116
3578.2703,0.0115126
3579.2346,0.011503
3580.1987,0.011484
3581.1631,0.011492
3582.1272,0.0116059
3583.0916,0.0119164
3584.0557,0.0124732
3585.0200,0.0132118
3585.9841,0.0138795
3586.9485,0.0140795
3587.9126,0.0135846
3588.8770,0.012634
3589.8411,0.0117219
3590.8054,0.0111935
3591.7695,0.0111306
3592.7339,0.0114215
3593.6980,0.0118333
3594.6624,0.0121047
3595.6265,0.0120908
3596.5908,0.0118488
3597.5549,0.0115487
3598.5193,0.0113115
3599.4834,0.0111356
3600.4478,0.0109438
3601.4119,0.0106913
3602.3762,0.0104319
3603.3403,0.0102821
3604.3047,0.0103344
3605.2688,0.0105968
3606.2332,0.0109737
3607.1973,0.0112956
3608.1616,0.0114184
3609.1257,0.0113378
3610.0901,0.0111893
3611.0542,0.011121
3612.0186,0.011184
3612.9827,0.0113267
3613.9470,0.0114623
3614.9111,0.0115377
3615.8755,0.0115478
3616.8396,0.0114903
3617.8040,0.0113124
3618.7681,0.0109184
3619.7324,0.0102746
3620.6965,0.00951355
3621.6609,0.00886888
3622.6250,0.00851772
3623.5894,0.00852429
3624.5535,0.0088794
3625.5178,0.00953135
3626.4819,0.0103561
3627.4463,0.0110772
3628.4104,0.011287
3629.3748,0.0107968
3630.3389,0.00992623
3631.3032,0.0091284
3632.2673,0.00859176
3633.2317,0.00828711
3634.1958,0.00812414
3635.1602,0.0080296
3636.1243,0.00796751
3637.0886,0.00793084
3638.0527,0.00792117
3639.0171,0.0079341
3639.9812,0.00796193
3640.9456,0.00800923
3641.9097,0.00810614
3642.8740,0.00830725
3643.8381,0.00867865
3644.8025,0.00928395
3645.7666,0.010164
3646.7310,0.0112691
3647.6951,0.0122897
3648.6594,0.0125624
3649.6235,0.0116781
3650.5879,0.0102148
3651.5520,0.00898385
3652.5164,0.00825382
3653.4805,0.00793771
3654.4448,0.00786305
3655.4089,0.00785475
3656.3733,0.00776987
3657.3374,0.0075555
3658.3018,0.00727054
3659.2659,0.00701661
3660.2302,0.00685729
3661.1943,0.00680215
3662.1587,0.00683445
3663.1228,0.00694131
3664.0872,0.00712776
3665.0513,0.00741068
3666.0156,0.00779959
3666.9797,0.00827118
3667.9441,0.00874075
3668.9082,0.00906244
3669.8726,0.00912777
3670.8367,0.0090047
3671.8010,0.00889195
3672.7651,0.00893703
3673.7295,0.00914943
3674.6936,0.00939737
3675.6580,0.0094529
3676.6221,0.00917293
3677.5864,0.00865877
3678.5505,0.00811334
3679.5149,0.00765179
3680.4790,0.00730303
3681.4434,0.00707638
3682.4075,0.00699317
3683.3718,0.00708234
3684.3359,0.00736316
3685.3003,0.00783108
3686.2644,0.00844004
3687.2288,0.00906185
3688.1929,0.00944034
3689.1572,0.00927704
3690.1213,0.00854464
3691.0857,0.00760635
3692.0498,0.00684603
3693.0142,0.00640206
3693.9783,0.00624202
3694.9426,0.00628832
3695.9067,0.00647189
3696.8711,0.00674016
3697.8352,0.00704641
3698.7996,0.0073321
3699.7637,0.00751487
3700.7280,0.00750526
3701.6921,0.00726845
3702.6565,0.00688798
3703.6206,0.00653999
3704.5850,0.00638531
3705.5491,0.00649938
3706.5134,0.00688227
3707.4775,0.00748881
3708.4419,0.00822566
3709.4060,0.0089086
3710.3704,0.00925064
3711.3345,0.00903484
3712.2988,0.00837887
3713.2629,0.00763964
3714.2273,0.00707873
3715.1914,0.00677136
3716.1558,0.0066986
3717.1199,0.00681983
3718.0842,0.00709378
3719.0483,0.00747811
3720.0127,0.00793001
3720.9768,0.00841233
3721.9412,0.00889223
3722.9053,0.00931975
3723.8696,0.00960439
3724.8337,0.00963444
3725.7981,0.00935604
3726.7622,0.00884379
3727.7266,0.00827873
3728.6907,0.00786296
3729.6550,0.00776128
3730.6191,0.00808953
3731.5835,0.00890495
3732.5476,0.0101475
3733.5120,0.0115192
3734.4761,0.0124413
3735.4404,0.0124051
3736.4045,0.0115273
3737.3689,0.0104146
3738.3330,0.00954106
3739.2974,0.00904803
3740.2615,0.00889484
3741.2258,0.00899288
3742.1899,0.00924223
3743.1543,0.00951803
3744.1184,0.00968295
3745.0828,0.00968678
3746.0469,0.0096341
3747.0112,0.00967314
3747.9753,0.00986117
3748.9397,0.0101192
3749.9038,0.0102173
3750.8682,0.00988293
3751.8323,0.00913224
3752.7966,0.00834084
3753.7607,0.0078295
3754.7251,0.00766262
3755.6892,0.00775134
3756.6536,0.00793879
3757.6177,0.00803021
3758.5820,0.00786529
3759.5461,0.00744467
3760.5105,0.0069548
3761.4746,0.00661662
3762.4390,0.00653972
3763.4031,0.00670302
3764.3674,0.00700206
3765.3315,0.00730317
3766.2959,0.00749561
3767.2600,0.00752923
3768.2244,0.00741257
3769.1885,0.00717587
3770.1528,0.00684401
3771.1169,0.00644883
3772.0813,0.00605114
3773.0454,0.0057308
3774.0098,0.00555483
3774.9739,0.0055554
3775.9382,0.00572191
3776.9023,0.00599464
3777.8667,0.00626627
3778.8308,0.00642115
3779.7952,0.00641288
3780.7593,0.00629945
3781.7236,0.00618341
3782.6877,0.00613027
3783.6521,0.0061383
3784.6162,0.00615588
3785.5806,0.00612235
3786.5447,0.00601186
3787.5090,0.00585348
3788.4731,0.00571306
3789.4375,0.00565459
3790.4016,0.00570998
3791.3660,0.00587091
3792.3301,0.00609882
3793.2944,0.00634356
3794.2585,0.00656421
3795.2229,0.00674751
3796.1870,0.00691365
3797.1514,0.00709802
3798.1155,0.00731457
3799.0798,0.00752424
3800.0439,0.00763417
3801.0083,0.00755517
3801.9724,0.00730208
3802.9368,0.00701068
3803.9009,0.00681402
3804.8652,0.00673572
3805.8293,0.0066936
3806.7937,0.00656754
3807.7578,0.00629975
3808.7222,0.00596392
3809.6863,0.00570932
3810.6506,0.00564854
3811.6147,0.00582124
3812.5791,0.006216
3813.5432,0.00677793
3814.5076,0.00739021
3815.4717,0.00788376
3816.4360,0.00812585
3817.4001,0.00810468
3818.3645,0.00788987
3819.3286,0.00754453
3820.2930,0.00711613
3821.2571,0.00668923
3822.2214,0.00638422
3823.1855,0.00627115
3824.1499,0.00632622
3825.1140,0.00647504
3826.0784,0.00664398
3827.0425,0.00678553
3828.0068,0.00688782
3828.9709,0.00697092
3829.9353,0.00706782
3830.8994,0.00720186
3831.8638,0.00737778
3832.8279,0.00759087
3833.7922,0.00784158
3834.7563,0.00813849
3835.7207,0.00848066
3836.6848,0.00882601
3837.6492,0.00907489
3838.6133,0.00911414
3839.5776,0.00891049
3840.5417,0.00853883
3841.5061,0.00810407
3842.4702,0.00767081
3843.4346,0.00726686
3844.3987,0.00692039
3845.3630,0.0066801
3846.3271,0.0066045
3847.2915,0.00674015
3848.2556,0.00711253
3849.2200,0.00772963
3850.1841,0.00857644
3851.1484,0.00956409
3852.1125,0.0104039
3853.0769,0.0105757
3854.0410,0.00984895
3855.0054,0.00873812
3855.9697,0.00781687
3856.9338,0.00723974
3857.8982,0.0069618
3858.8623,0.00693318
3859.8267,0.00713109
3860.7908,0.00752541
3861.7551,0.0080287
3862.7192,0.00847806
3863.6836,0.00871204
3864.6477,0.00870444
3865.6121,0.00858307
3866.5762,0.00850342
3867.5405,0.00853739
3868.5046,0.00864953
3869.4690,0.00872809
3870.4331,0.00865215
3871.3975,0.00837613
3872.3616,0.00796436
3873.3259,0.00753687
3874.2900,0.0071949
3875.2544,0.00699623
3876.2185,0.00696831
3877.1829,0.00712023
3878.1470,0.00743703
3879.1113,0.00786121
3880.0754,0.00828413
3881.0398,0.00857751
3882.0039,0.00865437
3882.9683,0.00850005
3883.9324,0.00815773
3884.8967,0.00771667
3885.8608,0.0073121
3886.8252,0.00709073
3887.7893,0.00714272
3888.7537,0.00745849
3889.7178,0.00792219
3890.6821,0.00832143
3891.6462,0.00841805
3892.6106,0.00812207
3893.5747,0.00760032
3894.5391,0.00713872
3895.5032,0.00694697
3896.4675,0.00711085
3897.4316,0.00762594
3898.3960,0.00841208
3899.3601,0.00930897
3900.3245,0.0101058
3901.2886,0.0106135
3902.2529,0.0107147
3903.2170,0.0103716
3904.1814,0.00964723
3905.1455,0.00871642
3906.1099,0.00779393
3907.0740,0.00703306
3908.0383,0.00649343
3909.0024,0.00617157
3909.9668,0.00604104
3910.9309,0.00607856
3911.8953,0.00627455
3912.8594,0.00662714
3913.8237,0.0071191
3914.7878,0.0076847
3915.7522,0.00818842
3916.7163,0.00845554
3917.6807,0.00837986
3918.6448,0.00803404
3919.6091,0.00764206
3920.5732,0.00742142
3921.5376,0.00745298
3922.5017,0.00765627
3923.4661,0.00784675
3924.4302,0.00785342
3925.3945,0.00764775
3926.3586,0.0073713
3927.3230,0.00722383
3928.2871,0.00732507
3929.2515,0.00764919
3930.2156,0.00803369
3931.1799,0.00825214
3932.1440,0.00814715
3933.1084,0.00774107
3934.0725,0.00720868
3935.0369,0.00674571
3936.0010,0.00647496
3936.9653,0.006438
3937.9294,0.0066229
3938.8938,0.00698103
3939.8579,0.00742559
3940.8223,0.00783305
3941.7864,0.008078
3942.7507,0.00810513
3943.7148,0.00798105
3944.6792,0.00785742
3945.6433,0.00786503
3946.6077,0.00802523
3947.5718,0.00823126
3948.5361,0.00830505
3949.5002,0.00811187
3950.4646,0.00766407
3951.4287,0.0071178
3952.3931,0.00666361
3953.3572,0.00641726
3954.3215,0.00638526
3955.2856,0.00649514
3956.2500,0.00665218
3957.2141,0.00678794
3958.1785,0.00687657
3959.1426,0.00691841
3960.1069,0.00691576
3961.0710,0.00686615
3962.0354,0.00677583
3962.9995,0.00667271
3963.9639,0.00659785
3964.9280,0.0065789
3965.8923,0.00660951
3966.8564,0.00665388
3967.8208,0.00667519
3968.7849,0.00666768
3969.7493,0.00666597
3970.7134,0.00671927
3971.6777,0.00684711
3972.6418,0.00701226
3973.6062,0.00713542
3974.5703,0.00714514
3975.5347,0.00702788
3976.4988,0.00683949
3977.4631,0.00666767
3978.4272,0.00657471
3979.3916,0.00656221
3980.3557,0.00657806
3981.3201,0.0065552
3982.2842,0.00645488
3983.2485,0.00628751
3984.2126,0.00610077
3985.1770,0.00594789
3986.1411,0.00586022
3987.1055,0.00583894
3988.0696,0.00586427
3989.0339,0.0059109
3989.9980,0.00595996
3990.9624,0.00600329
3991.9265,0.00604088
3992.8909,0.00607531
3993.8550,0.00610719
3994.8193,0.006134
3995.7834,0.00615201
3996.7478,0.00615959
3997.7119,0.00615884
3998.6763,0.00615439
3999.6404,0.00615067
4000.6047,0.00614897

##### Extended Information
[Rg]
,TT-(TII-CHO)2_KBr
Rg
,Nozaki
,matsulab
,Hw

[f[^]
,2024/01/19 16:26

f[^^Cv,uf[^
,Wavenumber [cm-1]
c,Abs
X^[g,399.193 cm-1
Gh,4000.6 cm-1
f[^u,0.964233 cm-1
f[^,3736    

[]
@,FT/IR-6300typeA
VA,A005961024

,2024/01/19 16:21

,W
o,TGS
Z,256
,4 cm-1
[tBO,On
A|_C[[V,Cosine
QC,Auto (16)
Ap[`[,Auto (7.1 mm)
XLXs[h,Auto (2 mm/sec)
tB^,Auto (10000 Hz)

